U.S. Standard Atmosphere (1976), calculated using epic/tools/C/us_standard_atmos_alt.c
Based on formulas from http://www.atmosculator.com/The Standard Atmosphere.html

  Z[km]  Temp[K]  Press[hPa]  Dens[kg/m^3]  Theta[K]  N2[1/s^2]  NH[m/s]
  0.000   288.15   1.013e+03     1.225e+00    287.07  1.113e-04    88.98
  0.500   284.90   9.546e+02     1.167e+00    288.71  1.126e-04    88.48
  1.000   281.65   8.987e+02     1.112e+00    290.38  1.139e-04    87.98
  1.500   278.40   8.456e+02     1.058e+00    292.08  1.152e-04    87.47
  2.000   275.15   7.950e+02     1.006e+00    293.81  1.166e-04    86.96
  2.500   271.90   7.468e+02     9.569e-01    295.58  1.180e-04    86.44
  3.000   268.65   7.011e+02     9.091e-01    297.37  1.194e-04    85.92
  3.500   265.40   6.576e+02     8.632e-01    299.20  1.209e-04    85.40
  4.000   262.15   6.164e+02     8.191e-01    301.06  1.224e-04    84.88
  4.500   258.90   5.773e+02     7.768e-01    302.95  1.239e-04    84.35
  5.000   255.65   5.402e+02     7.361e-01    304.88  1.255e-04    83.82
  5.500   252.40   5.051e+02     6.971e-01    306.85  1.271e-04    83.29
  6.000   249.15   4.718e+02     6.597e-01    308.86  1.287e-04    82.75
  6.500   245.90   4.403e+02     6.238e-01    310.91  1.304e-04    82.21
  7.000   242.65   4.106e+02     5.895e-01    313.00  1.322e-04    81.66
  7.500   239.40   3.825e+02     5.566e-01    315.13  1.340e-04    81.11
  8.000   236.15   3.560e+02     5.252e-01    317.30  1.358e-04    80.56
  8.500   232.90   3.310e+02     4.951e-01    319.52  1.377e-04    80.00
  9.000   229.65   3.074e+02     4.663e-01    321.79  1.397e-04    79.44
  9.500   226.40   2.852e+02     4.389e-01    324.11  1.417e-04    78.88
 10.000   223.15   2.644e+02     4.127e-01    326.47  1.437e-04    78.31
 10.500   219.90   2.447e+02     3.877e-01    328.89  1.459e-04    77.75
 11.000   216.65   2.263e+02     3.639e-01    331.37  2.946e-04   108.85
 11.500   216.65   2.092e+02     3.363e-01    338.92  4.423e-04   133.36
 12.000   216.65   1.933e+02     3.108e-01    346.65  4.423e-04   133.36
 12.500   216.65   1.786e+02     2.873e-01    354.56  4.423e-04   133.36
 13.000   216.65   1.651e+02     2.655e-01    362.64  4.423e-04   133.36
 13.500   216.65   1.526e+02     2.454e-01    370.91  4.423e-04   133.36
 14.000   216.65   1.410e+02     2.268e-01    379.37  4.423e-04   133.36
 14.500   216.65   1.303e+02     2.096e-01    388.03  4.423e-04   133.36
 15.000   216.65   1.204e+02     1.937e-01    396.87  4.423e-04   133.36
 15.500   216.65   1.113e+02     1.790e-01    405.93  4.423e-04   133.36
 16.000   216.65   1.029e+02     1.654e-01    415.18  4.423e-04   133.36
 16.500   216.65   9.507e+01     1.529e-01    424.65  4.423e-04   133.36
 17.000   216.65   8.787e+01     1.413e-01    434.34  4.423e-04   133.36
 17.500   216.65   8.120e+01     1.306e-01    444.24  4.423e-04   133.36
 18.000   216.65   7.505e+01     1.207e-01    454.37  4.423e-04   133.36
 18.500   216.65   6.936e+01     1.115e-01    464.73  4.423e-04   133.36
 19.000   216.65   6.410e+01     1.031e-01    475.33  4.423e-04   133.36
 19.500   216.65   5.924e+01     9.526e-02    486.17  4.423e-04   133.36
 20.000   216.65   5.475e+01     8.803e-02    497.26  4.646e-04   136.69
 20.500   217.15   5.060e+01     8.118e-02    509.76  4.864e-04   140.19
 21.000   217.65   4.678e+01     7.487e-02    522.55  4.853e-04   140.34
 21.500   218.15   4.325e+01     6.907e-02    535.62  4.842e-04   140.51
 22.000   218.65   4.000e+01     6.373e-02    548.99  4.831e-04   140.67
 22.500   219.15   3.700e+01     5.881e-02    562.67  4.820e-04   140.83
 23.000   219.65   3.422e+01     5.428e-02    576.65  4.809e-04   140.99
 23.500   220.15   3.167e+01     5.011e-02    590.95  4.798e-04   141.15
 24.000   220.65   2.930e+01     4.627e-02    605.56  4.787e-04   141.31
 24.500   221.15   2.712e+01     4.273e-02    620.51  4.776e-04   141.47
 25.000   221.65   2.511e+01     3.947e-02    635.79  4.765e-04   141.63
 25.500   222.15   2.325e+01     3.646e-02    651.41  4.755e-04   141.79
 26.000   222.65   2.153e+01     3.369e-02    667.37  4.744e-04   141.95
 26.500   223.15   1.994e+01     3.113e-02    683.69  4.733e-04   142.11
 27.000   223.65   1.847e+01     2.878e-02    700.37  4.723e-04   142.27
 27.500   224.15   1.712e+01     2.660e-02    717.42  4.712e-04   142.42
 28.000   224.65   1.586e+01     2.460e-02    734.85  4.702e-04   142.58
 28.500   225.15   1.470e+01     2.275e-02    752.66  4.691e-04   142.74
 29.000   225.65   1.363e+01     2.104e-02    770.86  4.681e-04   142.90
 29.500   226.15   1.264e+01     1.947e-02    789.45  4.671e-04   143.06
 30.000   226.65   1.172e+01     1.801e-02    808.46  4.660e-04   143.22
 30.500   227.15   1.087e+01     1.667e-02    827.88  4.650e-04   143.37
 31.000   227.65   1.008e+01     1.543e-02    847.72  4.640e-04   143.53
 31.500   228.15   9.354e+00     1.428e-02    867.99  4.630e-04   143.69
 32.000   228.65   8.680e+00     1.322e-02    888.69  5.000e-04   149.65
 32.500   230.05   8.057e+00     1.220e-02    913.38  5.359e-04   155.88
 33.000   231.45   7.482e+00     1.126e-02    938.61  5.326e-04   156.35
 33.500   232.85   6.951e+00     1.040e-02    964.37  5.294e-04   156.82
 34.000   234.25   6.461e+00     9.609e-03    990.67  5.263e-04   157.29
 34.500   235.65   6.008e+00     8.882e-03   1017.53  5.231e-04   157.76
 35.000   237.05   5.589e+00     8.214e-03   1044.95  5.200e-04   158.23
 35.500   238.45   5.202e+00     7.600e-03   1072.95  5.170e-04   158.70
 36.000   239.85   4.843e+00     7.034e-03   1101.52  5.140e-04   159.16
 36.500   241.25   4.511e+00     6.514e-03   1130.68  5.110e-04   159.63
 37.000   242.65   4.204e+00     6.035e-03   1160.44  5.080e-04   160.09
 37.500   244.05   3.919e+00     5.594e-03   1190.80  5.051e-04   160.55
 38.000   245.45   3.655e+00     5.187e-03   1221.78  5.023e-04   161.01
 38.500   246.85   3.410e+00     4.812e-03   1253.38  4.994e-04   161.47
 39.000   248.25   3.182e+00     4.466e-03   1285.61  4.966e-04   161.93
 39.500   249.65   2.971e+00     4.146e-03   1318.48  4.938e-04   162.38
 40.000   251.05   2.775e+00     3.851e-03   1352.00  4.910e-04   162.84
 40.500   252.45   2.593e+00     3.578e-03   1386.18  4.883e-04   163.29
 41.000   253.85   2.424e+00     3.327e-03   1421.03  4.856e-04   163.74
 41.500   255.25   2.267e+00     3.094e-03   1456.55  4.830e-04   164.19
 42.000   256.65   2.120e+00     2.878e-03   1492.76  4.803e-04   164.64
 42.500   258.05   1.984e+00     2.679e-03   1529.67  4.777e-04   165.09
 43.000   259.45   1.857e+00     2.494e-03   1567.28  4.751e-04   165.54
 43.500   260.85   1.739e+00     2.323e-03   1605.61  4.726e-04   165.99
 44.000   262.25   1.629e+00     2.164e-03   1644.66  4.701e-04   166.43
 44.500   263.65   1.527e+00     2.018e-03   1684.45  4.676e-04   166.87
 45.000   265.05   1.431e+00     1.881e-03   1724.98  4.651e-04   167.32
 45.500   266.45   1.342e+00     1.755e-03   1766.27  4.627e-04   167.76
 46.000   267.85   1.259e+00     1.638e-03   1808.31  4.602e-04   168.20
 46.500   269.25   1.182e+00     1.529e-03   1851.14  4.579e-04   168.65
 47.000   270.65   1.109e+00     1.428e-03   1894.75  4.054e-04   159.51
 47.500   270.65   1.041e+00     1.340e-03   1929.27  3.540e-04   149.06
 48.000   270.65   9.775e-01     1.258e-03   1964.41  3.540e-04   149.06
 48.500   270.65   9.177e-01     1.181e-03   2000.19  3.540e-04   149.06
 49.000   270.65   8.616e-01     1.109e-03   2036.62  3.540e-04   149.06
 49.500   270.65   8.089e-01     1.041e-03   2073.71  3.540e-04   149.06
 50.000   270.65   7.594e-01     9.775e-04   2111.48  3.540e-04   149.06
 50.500   270.65   7.130e-01     9.177e-04   2149.94  3.540e-04   149.06
 51.000   270.65   6.694e-01     8.616e-04   2189.10  3.036e-04   138.04
 51.500   269.25   6.283e-01     8.130e-04   2217.55  2.539e-04   125.58
 52.000   267.85   5.896e-01     7.669e-04   2246.52  2.552e-04   125.25
 52.500   266.45   5.531e-01     7.232e-04   2276.02  2.566e-04   124.92
 53.000   265.05   5.187e-01     6.817e-04   2306.06  2.579e-04   124.59
 53.500   263.65   4.862e-01     6.425e-04   2336.67  2.593e-04   124.26
 54.000   262.25   4.556e-01     6.053e-04   2367.85  2.607e-04   123.93
 54.500   260.85   4.268e-01     5.700e-04   2399.61  2.621e-04   123.60
 55.000   259.45   3.997e-01     5.367e-04   2431.98  2.635e-04   123.27
 55.500   258.05   3.742e-01     5.051e-04   2464.96  2.649e-04   122.94
 56.000   256.65   3.501e-01     4.753e-04   2498.57  2.664e-04   122.60
 56.500   255.25   3.275e-01     4.470e-04   2532.82  2.678e-04   122.27
 57.000   253.85   3.063e-01     4.203e-04   2567.74  2.693e-04   121.93
 57.500   252.45   2.863e-01     3.951e-04   2603.34  2.708e-04   121.60
 58.000   251.05   2.675e-01     3.712e-04   2639.63  2.723e-04   121.26
 58.500   249.65   2.499e-01     3.487e-04   2676.64  2.738e-04   120.92
 59.000   248.25   2.333e-01     3.274e-04   2714.38  2.754e-04   120.58
 59.500   246.85   2.177e-01     3.073e-04   2752.86  2.769e-04   120.24
 60.000   245.45   2.031e-01     2.883e-04   2792.12  2.785e-04   119.90
 60.500   244.05   1.894e-01     2.704e-04   2832.17  2.801e-04   119.56
 61.000   242.65   1.766e-01     2.536e-04   2873.02  2.817e-04   119.21
 61.500   241.25   1.646e-01     2.376e-04   2914.71  2.834e-04   118.87
 62.000   239.85   1.533e-01     2.226e-04   2957.25  2.850e-04   118.52
 62.500   238.45   1.427e-01     2.085e-04   3000.66  2.867e-04   118.18
 63.000   237.05   1.328e-01     1.952e-04   3044.97  2.884e-04   117.83
 63.500   235.65   1.236e-01     1.827e-04   3090.21  2.901e-04   117.48
 64.000   234.25   1.149e-01     1.709e-04   3136.39  2.918e-04   117.13
 64.500   232.85   1.068e-01     1.598e-04   3183.55  2.936e-04   116.78
 65.000   231.45   9.922e-02     1.493e-04   3231.70  2.954e-04   116.43
 65.500   230.05   9.214e-02     1.395e-04   3280.89  2.972e-04   116.08
 66.000   228.65   8.553e-02     1.303e-04   3331.13  2.990e-04   115.72
 66.500   227.25   7.935e-02     1.216e-04   3382.45  3.008e-04   115.37
 67.000   225.85   7.359e-02     1.135e-04   3434.89  3.027e-04   115.01
 67.500   224.45   6.821e-02     1.059e-04   3488.48  3.046e-04   114.66
 68.000   223.05   6.320e-02     9.871e-05   3543.24  3.065e-04   114.30
 68.500   221.65   5.852e-02     9.199e-05   3599.22  3.084e-04   113.94
 69.000   220.25   5.417e-02     8.568e-05   3656.45  3.104e-04   113.58
 69.500   218.85   5.012e-02     7.978e-05   3714.96  3.124e-04   113.22
 70.000   217.45   4.634e-02     7.424e-05   3774.79  3.144e-04   112.85
 70.500   216.05   4.283e-02     6.906e-05   3835.98  3.164e-04   112.49
 71.000   214.65   3.956e-02     6.421e-05   3898.57  3.366e-04   115.28
 71.500   213.65   3.653e-02     5.957e-05   3969.94  3.567e-04   118.11
 72.000   212.65   3.372e-02     5.524e-05   4042.97  3.584e-04   117.83
 72.500   211.65   3.111e-02     5.121e-05   4117.70  3.601e-04   117.55
 73.000   210.65   2.869e-02     4.745e-05   4194.17  3.618e-04   117.27
 73.500   209.65   2.645e-02     4.395e-05   4272.43  3.635e-04   117.00
 74.000   208.65   2.438e-02     4.070e-05   4352.54  3.652e-04   116.72
 74.500   207.65   2.246e-02     3.768e-05   4434.55  3.670e-04   116.44
 75.000   206.65   2.068e-02     3.486e-05   4518.51  3.688e-04   116.16
 75.500   205.65   1.903e-02     3.224e-05   4604.48  3.706e-04   115.87
 76.000   204.65   1.751e-02     2.981e-05   4692.51  3.724e-04   115.59
 76.500   203.65   1.611e-02     2.756e-05   4782.68  3.742e-04   115.31
 77.000   202.65   1.481e-02     2.546e-05   4875.03  3.760e-04   115.03
 77.500   201.65   1.361e-02     2.351e-05   4969.63  3.779e-04   114.74
 78.000   200.65   1.250e-02     2.170e-05   5066.56  3.798e-04   114.46
 78.500   199.65   1.148e-02     2.003e-05   5165.87  3.817e-04   114.17
 79.000   198.65   1.053e-02     1.848e-05   5267.65  3.836e-04   113.89
 79.500   197.65   9.665e-03     1.704e-05   5371.95  3.856e-04   113.60
 80.000   196.65   8.863e-03     1.570e-05   5478.87  3.875e-04   113.31
 80.500   195.65   8.123e-03     1.446e-05   5588.48  3.895e-04   113.02
 81.000   194.65   7.443e-03     1.332e-05   5700.86  3.915e-04   112.73
 81.500   193.65   6.816e-03     1.226e-05   5816.10  3.935e-04   112.44
 82.000   192.65   6.239e-03     1.128e-05   5934.27  3.956e-04   112.15
 82.500   191.65   5.708e-03     1.038e-05   6055.49  3.976e-04   111.86
 83.000   190.65   5.220e-03     9.539e-06   6179.83  3.997e-04   111.57
 83.500   189.65   4.772e-03     8.766e-06   6307.41  4.018e-04   111.28
 84.000   188.65   4.360e-03     8.051e-06   6438.31  4.039e-04   110.98
 84.500   187.65   3.981e-03     7.392e-06   6572.64  4.061e-04   110.68
