  Temp vs. p for Uranus. Data from paper: The atmosphere of Uranus: Results
  of the radio occultation measurments with Voyager 2, Lindal, et al, 1987,
  JGR 92, 14,987, Table 1. Extended past 1995 mbars w/subadiabat, k=0.30 to
  0.21, theta=100.9 @ 2308. Stratospheric T fit w/polynomial as f(ln(p)) with
  coeffs=71.9074,-7.76392,1.12761,-0.0752072. Isothermal above 0.40 hPa.
#      p[hPa]      T[K]   dT[K]
         390
    0.0500000      113.40   0.0
    0.0600000      113.40   0.0
    0.0700000      113.40   0.0
    0.0800000      113.40   0.0
    0.0900000      113.40   0.0
     0.100000      113.40   0.0
     0.200000      113.40   0.0
     0.300000      113.40   0.0
     0.400000      113.40   0.0
     0.450000      113.30   0.0
     0.500000      107.30   0.0
     0.560000      98.000   0.0
     0.630000      90.800   0.0
     0.710000      85.600   0.0
     0.790000      80.800   0.0
     0.890000      75.800   0.0
      1.00000      73.000   0.0
      1.12000      71.000   0.0
      1.26000      70.200   0.0
      1.41000      69.400   0.0
      1.58000      68.600   0.0
      1.78000      67.800   0.0
      2.00000      67.000   0.0
      2.24000      66.300   0.0
      2.51000      65.700   0.0
      2.82000      65.000   0.0
      3.16000      64.400   0.0
      3.55000      63.700   0.0
      3.98000      63.100   0.0
      4.47000      62.600   0.0
      5.01000      62.000   0.0
      5.62000      61.500   0.0
      6.31000      61.000   0.0
      7.08000      60.500   0.0
      7.94000      60.000   0.0
      8.91000      59.500   0.0
      10.0000      59.100   0.0
      11.2200      58.700   0.0
      12.5900      58.300   0.0
      14.1300      57.900   0.0
      15.8500      57.500   0.0
      17.7800      57.100   0.0
      19.9500      56.800   0.0
      22.3900      56.400   0.0
      25.1200      56.100   0.0
      28.1800      55.800   0.0
      31.6200      55.400   0.0
      35.4800      55.100   0.0
      39.8100      54.800   0.0
      44.6700      54.600   0.0
      50.1200      54.100   0.0
      56.2300      53.700   0.0
      63.1000      53.600   0.0
      70.7900      53.600   0.0
      79.4300      53.500   0.0
      89.1300      53.400   0.0
      100.000      53.200   0.0
      109.650      53.000   0.0
      120.230      53.100   0.0
      131.830      53.200   0.0
      144.540      53.500   0.0
      158.490      53.500   0.0
      173.780      53.800   0.0
      190.550      54.200   0.0
      208.930      54.500   0.0
      229.090      54.800   0.0
      251.190      55.200   0.0
      275.420      55.500   0.0
      302.000      56.100   0.0
      331.130      56.600   0.0
      363.080      57.400   0.0
      398.110      58.300   0.0
      436.520      59.300   0.0
      478.630      60.600   0.0
      524.810      62.000   0.0
      549.540      62.700   0.0
      575.440      63.600   0.0
      602.560      64.400   0.0
      630.960      65.300   0.0
      660.690      66.200   0.0
      691.830      67.100   0.0
      724.440      68.100   0.0
      758.580      69.200   0.0
      794.330      70.300   0.0
      831.760      71.400   0.0
      870.960      72.600   0.0
      912.010      73.800   0.0
      954.990      75.100   0.0
      1000.00      76.400   0.0
      1047.13      77.800   0.0
      1096.48      79.300   0.0
      1116.86      79.900   0.0
      1137.63      80.600   0.0
      1158.78      81.100   0.0
      1180.32      81.600   0.0
      1202.26      82.000   0.0
      1224.62      82.400   0.0
      1247.38      82.700   0.0
      1270.57      83.000   0.0
      1294.20      83.400   0.0
      1318.26      83.900   0.0
      1380.38      85.200   0.0
      1445.44      86.600   0.0
      1513.56      87.900   0.0
      1584.89      89.200   0.0
      1659.59      90.600   0.0
      1737.80      91.900   0.0
      1819.70      93.200   0.0
      1905.46      94.600   0.0
      1995.26      96.000   0.0
      2040.06      96.640   0.0
      2085.86      97.284   0.0
      2132.69      97.931   0.0
      2180.57      98.581   0.0
      2229.53      99.233   0.0
      2279.59      99.888   0.0
      2330.77      100.54   0.0
      2383.10      101.20   0.0
      2436.61      101.87   0.0
      2491.31      102.53   0.0
      2547.25      103.20   0.0
      2604.44      103.88   0.0
      2662.91      104.55   0.0
      2722.70      105.23   0.0
      2783.83      105.91   0.0
      2846.33      106.60   0.0
      2910.23      107.28   0.0
      2975.57      107.97   0.0
      3042.38      108.67   0.0
      3110.69      109.36   0.0
      3180.53      110.06   0.0
      3251.94      110.76   0.0
      3324.95      111.47   0.0
      3399.60      112.18   0.0
      3475.93      112.89   0.0
      3553.97      113.60   0.0
      3633.76      114.31   0.0
      3715.35      115.03   0.0
      3798.76      115.76   0.0
      3884.05      116.48   0.0
      3971.26      117.21   0.0
      4060.42      117.94   0.0
      4151.58      118.67   0.0
      4244.79      119.41   0.0
      4340.10      120.15   0.0
      4437.54      120.89   0.0
      4537.17      121.63   0.0
      4639.04      122.38   0.0
      4743.19      123.13   0.0
      4849.69      123.88   0.0
      4958.57      124.64   0.0
      5069.90      125.40   0.0
      5183.73      126.16   0.0
      5300.12      126.92   0.0
      5419.11      127.69   0.0
      5540.78      128.46   0.0
      5665.18      129.23   0.0
      5792.38      130.01   0.0
      5922.42      130.79   0.0
      6055.39      131.57   0.0
      6191.35      132.35   0.0
      6330.35      133.14   0.0
      6472.48      133.93   0.0
      6617.81      134.72   0.0
      6766.38      135.52   0.0
      6918.30      136.31   0.0
      7073.63      137.11   0.0
      7232.45      137.92   0.0
      7394.83      138.72   0.0
      7560.86      139.53   0.0
      7730.61      140.34   0.0
      7904.18      141.16   0.0
      8081.64      141.97   0.0
      8263.09      142.79   0.0
      8448.61      143.61   0.0
      8638.30      144.44   0.0
      8832.25      145.27   0.0
      9030.54      146.10   0.0
      9233.30      146.93   0.0
      9440.60      147.76   0.0
      9652.56      148.60   0.0
      9869.28      149.44   0.0
      10090.9      150.29   0.0
      10317.4      151.13   0.0
      10549.1      151.98   0.0
      10785.9      152.83   0.0
      11028.1      153.69   0.0
      11275.7      154.54   0.0
      11528.8      155.40   0.0
      11787.7      156.26   0.0
      12052.3      157.12   0.0
      12322.9      157.99   0.0
      12599.6      158.86   0.0
      12882.5      159.73   0.0
      13171.7      160.60   0.0
      13467.4      161.48   0.0
      13769.8      162.36   0.0
      14079.0      163.24   0.0
      14395.1      164.12   0.0
      14718.3      165.01   0.0
      15048.7      165.90   0.0
      15386.6      166.79   0.0
      15732.1      167.68   0.0
      16085.3      168.58   0.0
      16446.4      169.48   0.0
      16815.7      170.38   0.0
      17193.2      171.28   0.0
      17579.2      172.18   0.0
      17973.9      173.09   0.0
      18377.5      174.00   0.0
      18790.1      174.91   0.0
      19211.9      175.83   0.0
      19643.3      176.74   0.0
      20084.3      177.66   0.0
      20535.2      178.58   0.0
      20996.3      179.51   0.0
      21467.7      180.43   0.0
      21949.7      181.36   0.0
      22442.5      182.29   0.0
      22946.4      183.22   0.0
      23461.6      184.15   0.0
      23988.3      185.09   0.0
      24526.9      186.03   0.0
      25077.6      186.97   0.0
      25640.6      187.91   0.0
      26216.3      188.85   0.0
      26804.9      189.80   0.0
      27406.7      190.75   0.0
      28022.0      191.70   0.0
      28651.2      192.65   0.0
      29294.5      193.61   0.0
      29952.2      194.56   0.0
      30624.6      195.52   0.0
      31312.2      196.48   0.0
      32015.2      197.44   0.0
      32734.0      198.41   0.0
      33469.0      199.37   0.0
      34220.4      200.34   0.0
      34988.7      201.31   0.0
      35774.3      202.28   0.0
      36577.5      203.25   0.0
      37398.7      204.23   0.0
      38238.4      205.20   0.0
      39096.9      206.18   0.0
      39974.7      207.16   0.0
      40872.2      208.14   0.0
      41789.9      209.13   0.0
      42728.1      210.11   0.0
      43687.5      211.10   0.0
      44668.3      212.09   0.0
      45671.2      213.08   0.0
      46696.6      214.07   0.0
      47745.1      215.06   0.0
      48817.0      216.05   0.0
      49913.0      217.05   0.0
      51033.7      218.05   0.0
      52179.5      219.05   0.0
      53351.0      220.05   0.0
      54548.8      221.05   0.0
      55773.6      222.05   0.0
      57025.8      223.06   0.0
      58306.1      224.06   0.0
      59615.2      225.07   0.0
      60953.7      226.08   0.0
      62322.2      227.09   0.0
      63721.4      228.10   0.0
      65152.1      229.11   0.0
      66614.9      230.12   0.0
      68110.5      231.14   0.0
      69639.7      232.15   0.0
      71203.3      233.17   0.0
      72801.9      234.19   0.0
      74436.4      235.21   0.0
      76107.6      236.23   0.0
      77816.4      237.25   0.0
      79563.5      238.27   0.0
      81349.9      239.29   0.0
      83176.4      240.32   0.0
      85043.8      241.34   0.0
      86953.1      242.37   0.0
      88905.4      243.39   0.0
      90901.6      244.42   0.0
      92942.4      245.45   0.0
      95029.1      246.48   0.0
      97162.7      247.51   0.0
      99344.3      248.54   0.0
      101575.      249.57   0.0
      103855.      250.60   0.0
      106187.      251.64   0.0
      108571.      252.67   0.0
      111009.      253.70   0.0
      113501.      254.74   0.0
      116049.      255.77   0.0
      118655.      256.81   0.0
      121319.      257.85   0.0
      124043.      258.88   0.0
      126828.      259.92   0.0
      129675.      260.96   0.0
      132587.      262.00   0.0
      135563.      263.04   0.0
      138607.      264.07   0.0
      141719.      265.11   0.0
      144901.      266.15   0.0
      148154.      267.19   0.0
      151481.      268.23   0.0
      154882.      269.27   0.0
      158359.      270.31   0.0
      161914.      271.35   0.0
      165550.      272.40   0.0
      169267.      273.44   0.0
      173067.      274.48   0.0
      176953.      275.52   0.0
      180925.      276.56   0.0
      184988.      277.60   0.0
      189141.      278.64   0.0
      193388.      279.68   0.0
      197729.      280.72   0.0
      202169.      281.76   0.0
      206708.      282.80   0.0
      211349.      283.84   0.0
      216094.      284.88   0.0
      220946.      285.92   0.0
      225906.      286.96   0.0
      230978.      288.00   0.0
      236164.      289.04   0.0
      241467.      290.08   0.0
      246888.      291.11   0.0
      252431.      292.15   0.0
      258099.      293.19   0.0
      263894.      294.22   0.0
      269818.      295.26   0.0
      275876.      296.29   0.0
      282070.      297.33   0.0
      288403.      298.36   0.0
      294878.      299.40   0.0
      301499.      300.43   0.0
      308268.      301.46   0.0
      315189.      302.49   0.0
      322266.      303.52   0.0
      329501.      304.55   0.0
      336899.      305.58   0.0
      344463.      306.61   0.0
      352197.      307.63   0.0
      360104.      308.66   0.0
      368190.      309.68   0.0
      376456.      310.71   0.0
      384908.      311.73   0.0
      393550.      312.75   0.0
      402386.      313.77   0.0
      411420.      314.79   0.0
      420657.      315.81   0.0
      430102.      316.82   0.0
      439758.      317.84   0.0
      449632.      318.85   0.0
      459727.      319.87   0.0
      470049.      320.88   0.0
      480602.      321.89   0.0
      491392.      322.90   0.0
      502426.      323.90   0.0
      513706.      324.91   0.0
      525239.      325.91   0.0
      537031.      326.92   0.0
      549089.      327.92   0.0
      561417.      328.92   0.0
      574022.      329.91   0.0
      586910.      330.91   0.0
      600087.      331.90   0.0
      613560.      332.90   0.0
      627335.      333.89   0.0
      641420.      334.88   0.0
      655822.      335.86   0.0
      670546.      336.85   0.0
      685600.      337.83   0.0
      700994.      338.81   0.0
      716733.      339.79   0.0
      732824.      340.77   0.0
      749278.      341.74   0.0
      766101.      342.72   0.0
      783301.      343.69   0.0
      800887.      344.65   0.0
      818869.      345.62   0.0
      837254.      346.59   0.0
      856052.      347.55   0.0
      875271.      348.51   0.0
      894924.      349.46   0.0
      915016.      350.42   0.0
      935559.      351.37   0.0
      956565.      352.32   0.0
      978042.      353.27   0.0
     1000000.      354.21   0.0
