 Uranus T(p) profile by Raul Morales-Juberias
 Latitudinal average of CIRS 2d data
 .
 .
 .
#     p[hPa]         T[K]    dT[K]
394
    0.0500000      113.400    0.
    0.0600000      113.400    0.
    0.0700000      113.400    0.
    0.0800000      113.400    0.
    0.0900000      113.400    0.
     0.100000      113.400    0.
     0.200000      113.400    0.
     0.300000      113.400    0.
     0.400000      113.400    0.
     0.450000      113.300    0.
     0.500000      107.300    0.
     0.560000      98.0000    0.
     0.630000      90.8000    0.
     0.710000      85.6000    0.
     0.790000      80.8000    0.
     0.890000      75.8000    0.
      1.00000      73.0000    0.
      1.12000      71.0000    0.
      1.26000      70.2000    0.
      1.41000      69.4000    0.
      1.58000      68.6000    0.
      1.78000      67.8000    0.
      2.00000      67.0000    0.
      2.24000      66.3000    0.
      2.51000      65.7000    0.
      2.82000      65.0000    0.
      3.16000      64.4000    0.
      3.55000      63.7000    0.
      3.98000      63.1000    0.
      4.47000      62.6000    0.
      5.01000      62.0000    0.
      5.62000      61.5000    0.
      6.31000      61.0000    0.
      7.08000      60.5000    0.
      7.94000      60.0000    0.
      8.91000      59.5000    0.
      10.0000      59.1000    0.
      11.2200      58.7000    0.
      12.5900      58.3000    0.
      14.1300      57.9000    0.
      15.8500      57.5000    0.
      17.7800      57.1000    0.
      19.9500      56.8000    0.
      22.3900      56.4000    0.
      25.1200      56.1000    0.
      28.1800      55.8000    0.
      31.6200      55.4000    0.
      35.4800      55.1000    0.
      39.8100      54.8000    0.
      44.6700      54.6000    0.
      50.1200      54.1000    0.
      56.2300      53.7000    0.
      63.1000      53.6000    0.
      70.7900      53.6000    0.
      79.4300      53.5000    0.
      89.1300      53.4000    0.
      100.000      53.2000    0.
      109.650      53.0000    0.
      120.230      53.1000    0.
      131.830      53.2000    0.
      144.540      53.5000    0.
      158.490      53.5000    0.
      173.780      53.8000    0.
      190.550      54.2000    0.
      208.930      54.5000    0.
      229.090      54.8000    0.
      251.190      55.2000    0.
      275.420      55.5000    0.
      302.000      56.1000    0.
      331.130      56.6000    0.
      363.080      57.4000    0.
      398.110      58.3000    0.
      436.520      59.3000    0.
      478.630      60.6000    0.
      524.810      62.0000    0.
      549.540      62.7000    0.
      575.440      63.6000    0.
      602.560      64.6363    0.
      630.960      65.6881    0.
      660.690      66.7552    0.
      691.830      67.8384    0.
      724.440      68.9377    0.
      758.580      70.0530    0.
      794.330      71.1846    0.
      831.760      72.3326    0.
      870.960      73.4975    0.
      912.010      74.6793    0.
      954.990      75.8782    0.
      1000.00      77.0944    0.
      1047.13      78.3280    0.
      1096.48      79.5793    0.
      1116.86      80.0798    0.
      1137.63      80.5834    0.
      1158.78      81.0896    0.
      1180.32      81.5986    0.
      1202.26      82.1105    0.
      1224.62      82.6254    0.
      1247.38      83.1429    0.
      1270.57      83.6634    0.
      1294.20      84.1870    0.
      1318.26      84.7133    0.
      1380.38      86.0546    0.
      1445.44      87.4150    0.
      1513.56      88.7941    0.
      1584.89      90.1924    0.
      1659.59      91.6101    0.
      1737.80      93.0470    0.
      1819.70      94.5037    0.
      1905.46      95.9802    0.
      1995.26      97.4767    0.
      2089.30      98.9934    0.
      2187.76      100.530    0.
      2290.87      102.088    0.
      2308.81      102.350    0.
      2341.50      102.825    0.
      2392.89      103.565    0.
      2445.41      104.309    0.
      2499.07      105.057    0.
      2553.92      105.811    0.
      2609.97      106.568    0.
      2667.25      107.331    0.
      2725.79      108.098    0.
      2785.61      108.869    0.
      2846.75      109.646    0.
      2909.23      110.427    0.
      2973.07      111.212    0. 
      3038.33      112.003    0.
      3105.01      112.798    0.
      3173.15      113.598    0.
      3242.79      114.402    0.
      3313.96      115.212    0.
      3386.69      116.026    0.
      3461.02      116.845    0.
      3536.98      117.668    0.
      3614.61      118.497    0.
      3693.93      119.330    0.
      3775.01      120.169    0.
      3857.85      121.012    0.
      3942.52      121.860    0.
      4029.05      122.713    0.
      4117.47      123.571    0.
      4207.84      124.434    0.
      4300.19      125.301    0.
      4394.57      126.174    0.
      4491.01      127.052    0.
      4589.58      127.934    0.
      4690.30      128.822    0.
      4793.24      129.715    0.
      4898.44      130.612    0.
      5005.94      131.515    0.
      5115.81      132.423    0.
      5228.08      133.335    0.
      5342.83      134.253    0.
      5460.08      135.176    0.
      5579.92      136.104    0.
      5702.38      137.037    0.
      5827.53      137.975    0.
      5955.42      138.918    0.
      6086.13      139.867    0.
      6219.70      140.820    0.
      6356.20      141.779    0.
      6495.70      142.743    0.
      6638.26      143.712    0.
      6783.95      144.686    0.
      6932.84      145.666    0.
      7084.99      146.650    0.
      7240.49      147.640    0.
      7399.39      148.635    0.
      7561.79      149.635    0.
      7727.74      150.640    0.
      7897.34      151.651    0.
      8070.67      152.667    0.
      8247.79      153.688    0.
      8428.80      154.714    0.
      8613.79      155.746    0.
      8802.84      156.783    0.
      8996.03      157.825    0.
      9193.47      158.872    0.
      9395.24      159.925    0.
      9601.43      160.983    0.
      9812.15      162.046    0.
      10027.5      163.114    0.
      10247.6      164.188    0.
      10472.5      165.267    0.
      10702.3      166.351    0.
      10937.2      167.441    0.
      11177.2      168.536    0.
      11422.5      169.636    0.
      11673.2      170.741    0.
      11929.4      171.852    0.
      12191.2      172.968    0.
      12458.8      174.090    0.
      12732.2      175.216    0.
      13011.7      176.349    0.
      13297.2      177.486    0.
      13589.1      178.629    0.
      13887.3      179.776    0.
      14192.1      180.930    0.
      14503.5      182.088    0.
      14821.9      183.252    0.
      15147.2      184.421    0.
      15479.6      185.595    0.
      15819.3      186.775    0.
      16166.5      187.959    0.
      16521.3      189.150    0.
      16883.9      190.345    0.
      17254.5      191.546    0.
      17633.1      192.751    0.
      18020.1      193.963    0.
      18415.6      195.179    0.
      18819.8      196.401    0.
      19232.8      197.628    0.
      19654.9      198.860    0.
      20086.3      200.097    0.
      20527.1      201.339    0.
      20977.6      202.587    0.
      21438.0      203.840    0.
      21908.5      205.098    0.
      22389.3      206.361    0.
      22880.7      207.629    0.
      23382.9      208.903    0.
      23896.1      210.181    0.
      24420.5      211.465    0.
      24956.5      212.754    0.
      25504.2      214.048    0.
      26063.9      215.346    0.
      26635.9      216.650    0.
      27220.5      217.959    0.
      27817.9      219.273    0.
      28428.4      220.592    0.
      29052.4      221.917    0.
      29690.0      223.246    0.
      30341.6      224.580    0.
      31007.4      225.918    0.
      31688.0      227.262    0.
      32383.4      228.611    0.
      33094.1      229.965    0.
      33820.5      231.324    0.
      34562.7      232.687    0.
      35321.3      234.055    0.
      36096.5      235.428    0.
      36888.6      236.806    0.
      37698.2      238.189    0.
      38525.6      239.576    0.
      39371.1      240.968    0.
      40235.2      242.365    0.
      41118.3      243.766    0.
      42020.6      245.172    0.
      42942.9      246.583    0.
      43885.4      247.999    0.
      44848.5      249.418    0.
      45832.8      250.843    0.
      46838.7      252.272    0.
      47866.6      253.705    0.
      48917.2      255.143    0.
      49990.8      256.586    0.
      51087.9      258.033    0.
      52209.1      259.484    0.
      53355.0      260.939    0.
      54525.9      262.399    0.
      55722.6      263.864    0.
      56945.6      265.332    0.
      58195.3      266.805    0.
      59472.5      268.282    0.
      60777.8      269.763    0.
      62111.6      271.248    0.
      63474.8      272.737    0.
      64867.9      274.231    0.
      66291.5      275.728    0.
      67746.4      277.230    0.
      69233.3      278.735    0.
      70752.7      280.244    0.
      72305.5      281.758    0.
      73892.4      283.275    0.
      75514.1      284.796    0.
      77171.4      286.321    0.
      78865.0      287.849    0.
      80595.9      289.381    0.
      82364.8      290.917    0.
      84172.4      292.457    0.
      86019.7      294.000    0.
      87907.6      295.547    0.
      89836.9      297.097    0.
      91808.5      298.651    0.
      93823.4      300.208    0.
      95882.6      301.768    0.
      97986.9      303.332    0.
      100137.      304.899    0.
      102335.      306.470    0.
      104581.      308.044    0.
      106876.      309.620    0.
      109222.      311.201    0.
      111619.      312.784    0.
      114069.      314.370    0.
      116572.      315.959    0.
      119131.      317.552    0.
      121745.      319.146    0.
      124417.      320.744    0.
      127148.      322.345    0.
      129938.      323.949    0.
      132790.      325.555    0.
      135704.      327.164    0.
      138682.      328.775    0.
      141726.      330.390    0.
      144837.      332.007    0.
      148015.      333.626    0.
      151264.      335.247    0.
      154584.      336.872    0.
      157976.      338.498    0.
      161443.      340.126    0.
      164986.      341.757    0.
      168607.      343.390    0.
      172308.      345.026    0.
      176089.      346.663    0.
      179954.      348.303    0.
      183903.      349.944    0.
      187940.      351.588    0.
      192064.      353.232    0.
      196279.      354.879    0.
      200587.      356.528    0.
      204989.      358.179    0.
      209488.      359.831    0.
      214086.      361.485    0.
      218784.      363.140    0.
      223586.      364.797    0.
      228493.      366.456    0.
      233508.      368.115    0.
      238633.      369.777    0.
      243870.      371.439    0.
      249222.      373.102    0.
      254692.      374.767    0.
      260282.      376.433    0.
      265994.      378.100    0.
      271832.      379.768    0.
      277798.      381.437    0.
      283894.      383.107    0.
      290125.      384.778    0.
      296492.      386.449    0.
      302999.      388.121    0.
      309649.      389.794    0.
      316445.      391.468    0.
      323390.      393.142    0.
      330487.      394.817    0.
      337740.      396.492    0.
      345153.      398.168    0.
      352728.      399.843    0.
      360470.      401.520    0.
      368380.      403.196    0.
      376465.      404.872    0.
      384728.      406.549    0.
      393171.      408.226    0.
      401800.      409.903    0.
      410618.      411.579    0.
      419630.      413.256    0.
      428839.      414.932    0.
      438251.      416.608    0.
      447870.      418.284    0.
      457699.      419.960    0.
      467744.      421.635    0.
      478010.      423.310    0.
      488500.      424.984    0.
      499221.      426.657    0.
      510178.      428.330    0.
      521374.      430.003    0.
      532817.      431.674    0.
      544511.      433.345    0.
      556461.      435.015    0.
      568674.      436.684    0.
      581155.      438.352    0.
      593909.      440.019    0.
      606944.      441.685    0.
      620264.      443.350    0.
      633877.      445.014    0.
      647789.      446.677    0.
      662006.      448.338    0.
      676534.      449.997    0.
      691382.      451.656    0.
      706556.      453.313    0.
      722063.      454.969    0.
      737910.      456.622    0.
      754105.      458.275    0.
      770655.      459.925    0.
      787569.      461.574    0.
      804854.      463.222    0.
      822517.      464.867    0.
      840569.      466.510    0.
      859017.      468.152    0.
      877870.      469.791    0.
      897135.      471.429    0.
      916825.      473.064    0.
      936947.      474.697    0.
      957509.      476.328    0.
      978525.      477.957    0.
  1.00000e+06      479.584    0.
