 Data from HASI_L4_ATMO_PROFILE_DESCEN.TAB
 Huygens Atmospheric Structure Instrument (HASI)
 Extended below 3 m assuming a constant temperature lapse rate
 and an ideal gas, based on the two lowest-altitude measured points.
 Columns are altitude, pressure, temperature, density.

 1827

  z[m]        p[Pa]  T[K]      rho[kg/m^3]
  146797.0    275.0  167.0835  0.0056589
  146527.0    276.0  166.5414  0.0056572
  146260.0    278.0  165.6781  0.0057393
  145996.0    279.0  165.7259  0.0058771
  145734.0    280.0  165.5562  0.0058542
  145474.0    282.0  164.6073  0.0059132
  145216.0    284.0  164.4417  0.0058803
  144959.0    285.0  164.6781  0.0059319
  144704.0    287.0  164.6320  0.0060082
  144450.0    288.0  164.1974  0.0061051
  144196.0    290.0  164.0475  0.0060584
  143944.0    292.0  163.9082  0.0061074
  143693.0    294.0  163.7678  0.0061542
  143443.0    295.0  163.5750  0.0062168
  143194.0    297.0  163.3629  0.0063200
  142946.0    299.0  163.2095  0.0063200
  142699.0    301.0  162.5804  0.0063348
  142453.0    303.0  162.7684  0.0063742
  141939.0    307.0  162.5020  0.0064930
  141697.0    309.0  162.1113  0.0065811
  141456.0    311.0  162.4280  0.0065541
  141215.0    312.0  162.4400  0.0066045
  140976.0    314.0  162.3658  0.0066466
  140737.0    316.0  162.1745  0.0066873
  140499.0    318.0  161.6203  0.0067339
  140262.0    320.0  161.4676  0.0067783
  140025.0    322.0  161.3329  0.0068168
  139789.0    324.0  161.5400  0.0068636
  139554.0    325.0  161.4681  0.0069110
  139320.0    327.0  161.1037  0.0069500
  139086.0    329.0  161.1281  0.0069979
  138853.0    331.0  160.9973  0.0070370
  138621.0    333.0  160.8987  0.0070926
  138389.0    335.0  160.8823  0.0071337
  138159.0    337.0  160.8952  0.0071721
  137929.0    339.0  160.9901  0.0072116
  137434.0    343.0  160.9059  0.0073162
  137207.0    345.0  160.7256  0.0073660
  136980.0    347.0  160.6114  0.0074255
  136754.0    349.0  160.5206  0.0075533
  136529.0    351.0  160.3106  0.0074957
  136304.0    353.0  160.1663  0.0075127
  136080.0    355.0  160.3800  0.0075319
  135857.0    357.0  160.3257  0.0076270
  135635.0    359.0  160.0204  0.0076750
  135413.0    361.0  159.7374  0.0077149
  135192.0    363.0  159.8034  0.0077806
  134971.0    365.0  160.0390  0.0078346
  134751.0    367.0  160.0160  0.0078775
  134532.0    369.0  159.7363  0.0079094
  134313.0    371.0  159.5514  0.0078806
  134096.0    373.0  159.5871  0.0079760
  133878.0    375.0  159.6509  0.0080919
  133662.0    378.0  159.5023  0.0079966
  133446.0    380.0  159.6751  0.0081046
  133231.0    382.0  160.3249  0.0081629
  133016.0    384.0  160.2397  0.0082062
  132802.0    386.0  160.0511  0.0082490
  132589.0    388.0  160.3172  0.0083003
  132376.0    390.0  160.3418  0.0083163
  132163.0    392.0  160.0794  0.0083909
  131951.0    395.0  160.0127  0.0084651
  131740.0    397.0  160.1180  0.0085394
  131296.0    401.0  159.5253  0.0086728
  131086.0    403.0  158.9700  0.0087703
  130877.0    405.0  158.3853  0.0088237
  130669.0    408.0  157.8125  0.0088775
  130461.0    410.0  157.6723  0.0089389
  130255.0    412.0  157.3357  0.0089366
  130049.0    415.0  157.2668  0.0090638
  129843.0    417.0  157.2149  0.0091427
  129639.0    419.0  156.5815  0.0092099
  129435.0    421.0  156.1996  0.0092322
  129232.0    423.0  156.1916  0.0092193
  129030.0    425.0  155.9310  0.0093337
  128829.0    428.0  155.9731  0.0093768
  128628.0    430.0  156.0443  0.0093521
  128428.0    432.0  156.0900  0.0094913
  128228.0    435.0  156.3718  0.0094948
  128029.0    437.0  156.2060  0.0095002
  127831.0    439.0  156.1511  0.0096337
  127413.0    444.0  156.1898  0.0096836
  127216.0    446.0  156.2028  0.0098144
  127019.0    448.0  156.2057  0.0098421
  126823.0    451.0  156.1954  0.0098572
  126628.0    453.0  156.0923  0.0099621
  126432.0    456.0  156.0262  0.0099743
  126238.0    458.0  156.0064  0.0101080
  126044.0    460.0  155.6830  0.0100970
  125850.0    463.0  155.4293  0.0102420
  125657.0    465.0  155.3673  0.0102900
  125465.0    467.0  155.1973  0.0102750
  125273.0    470.0  155.1107  0.0104040
  125082.0    472.0  155.0671  0.0104440
  124891.0    475.0  154.9481  0.0104360
  124701.0    477.0  155.1892  0.0104470
  124511.0    479.0  155.3110  0.0105410
  124322.0    482.0  155.3786  0.0106700
  124133.0    484.0  155.3479  0.0106630
  123945.0    486.0  155.0859  0.0107210
  123756.0    489.0  155.2662  0.0107660
  123569.0    491.0  155.3407  0.0108230
  123382.0    494.0  155.2178  0.0108560
  123195.0    496.0  155.2593  0.0109030
  123008.0    499.0  155.4861  0.0110000
  122823.0    501.0  155.5412  0.0110690
  122637.0    504.0  155.4183  0.0110890
  122452.0    506.0  155.4979  0.0111110
  122064.0    511.0  155.4099  0.0112830
  121881.0    514.0  155.2250  0.0113310
  121698.0    516.0  155.0506  0.0113950
  121517.0    519.0  155.0922  0.0114510
  121335.0    522.0  155.1766  0.0115470
  121154.0    524.0  155.1035  0.0115060
  120974.0    527.0  155.0794  0.0116240
  120794.0    529.0  155.3596  0.0115630
  120614.0    532.0  155.6653  0.0116950
  120435.0    534.0  155.6939  0.0117280
  120255.0    536.0  155.7188  0.0118310
  120075.0    539.0  155.7134  0.0118280
  119896.0    542.0  155.7482  0.0118960
  119718.0    545.0  155.7869  0.0119930
  119539.0    547.0  155.6924  0.0120610
  119362.0    550.0  155.6506  0.0121000
  119184.0    552.0  155.1475  0.0121980
  119007.0    556.0  155.1468  0.0123590
  118636.0    561.0  154.7333  0.0124800
  118462.0    564.0  154.2348  0.0125440
  118288.0    566.0  154.0735  0.0125590
  118114.0    569.0  153.7520  0.0126690
  117941.0    571.0  153.6432  0.0127380
  117769.0    574.0  153.6508  0.0127690
  117597.0    576.0  153.6680  0.0128830
  117425.0    579.0  153.5463  0.0129210
  117254.0    582.0  153.4183  0.0129400
  117084.0    584.0  153.3639  0.0130000
  116913.0    587.0  153.2918  0.0130980
  116743.0    590.0  153.2058  0.0131390
  116573.0    593.0  153.2888  0.0131600
  116404.0    595.0  153.5304  0.0132150
  116234.0    598.0  153.6324  0.0132770
  116066.0    601.0  153.7437  0.0133860
  115897.0    603.0  153.6571  0.0134690
  115729.0    606.0  153.7461  0.0135030
  115562.0    609.0  153.6435  0.0135620
  115394.0    612.0  153.4462  0.0136270
  115227.0    615.0  153.4028  0.0137300
  115060.0    618.0  153.3486  0.0138050
  114894.0    620.0  153.2404  0.0138440
  114728.0    623.0  153.2330  0.0139350
  114563.0    626.0  153.2941  0.0140320
  114397.0    629.0  153.0859  0.0141240
  114233.0    632.0  152.9971  0.0142050
  113878.0    638.0  151.9753  0.0143750
  113715.0    640.0  151.7391  0.0144550
  113553.0    643.0  151.5898  0.0145480
  113391.0    646.0  151.4320  0.0146290
  113229.0    649.0  151.3423  0.0146680
  113068.0    652.0  151.2939  0.0147990
  112907.0    655.0  151.2032  0.0149630
  112747.0    658.0  151.0294  0.0150220
  112587.0    661.0  150.5789  0.0151200
  112428.0    664.0  150.0612  0.0152000
  112271.0    667.0  149.6800  0.0152710
  112114.0    669.0  149.2517  0.0153530
  111957.0    673.0  149.0536  0.0154380
  111801.0    675.0  148.9689  0.0155320
  111645.0    678.0  148.8793  0.0156460
  111490.0    681.0  148.7588  0.0157490
  111335.0    684.0  148.6157  0.0157880
  111181.0    687.0  148.3932  0.0158990
  110855.0    695.0  148.0463  0.0160710
  110689.0    698.0  147.9403  0.0161750
  110501.0    702.0  147.5250  0.0162900
  110294.0    706.0  147.3816  0.0164410
  110069.0    710.0  147.1780  0.0165790
  109828.0    715.0  146.8785  0.0166210
  109571.0    720.0  146.6547  0.0167290
  109300.0    726.0  146.4089  0.0170560
  109018.0    732.0  146.2690  0.0170620
  108726.0    738.0  146.2061  0.0171730
  108424.0    744.0  146.2265  0.0173070
  108115.0    750.0  146.2281  0.0174500
  107799.0    757.0  146.0107  0.0177310
  107477.0    764.0  145.9061  0.0177240
  107150.0    771.0  146.1475  0.0179200
  106819.0    779.0  146.1200  0.0181740
  106484.0    787.0  146.1995  0.0181350
  106147.0    794.0  146.3173  0.0183920
  105807.0    802.0  145.6353  0.0189180
  105464.0    810.0  145.0624  0.0189960
  105121.0    818.0  144.6780  0.0191930
  104777.0    826.0  144.0051  0.0194560
  104432.0    834.0  143.6693  0.0197510
  104088.0    843.0  143.3275  0.0199630
  103745.0    851.0  143.2144  0.0200810
  103402.0    860.0  143.0589  0.0204180
  103060.0    869.0  143.2078  0.0204990
  102342.0    887.0  143.2425  0.0209790
  102004.0    896.0  143.0093  0.0211580
  101667.0    905.0  142.9748  0.0213400
  101331.0    914.0  143.0917  0.0215230
  100997.0    923.0  143.2319  0.0215840
  100664.0    932.0  142.9576  0.0218360
  100333.0    941.0  142.3533  0.0222720
  100003.0    951.0  141.9533  0.0226990
   99675.0    960.0  141.6807  0.0229240
   99348.0    969.0  141.1972  0.0231140
   99023.0    979.0  141.2710  0.0233700
   98699.0    988.0  141.4031  0.0235470
   98378.0    997.0  141.3969  0.0237930
   98057.0   1007.0  141.4889  0.0241160
   97739.0   1017.0  141.5910  0.0243390
   97422.0   1026.0  141.5848  0.0245220
   97106.0   1036.0  141.0152  0.0247940
   96792.0   1046.0  140.7861  0.0251970
   96145.0   1066.0  140.6244  0.0256210
   95836.0   1076.0  140.2352  0.0259590
   95530.0   1086.0  139.8808  0.0262260
   95224.0   1096.0  139.8341  0.0265510
   94921.0   1106.0  139.3985  0.0268420
   94619.0   1116.0  139.1443  0.0270190
   94319.0   1127.0  138.9840  0.0273570
   94021.0   1137.0  138.6094  0.0278070
   93724.0   1147.0  138.1494  0.0281320
   93429.0   1157.0  137.7605  0.0283390
   93136.0   1167.0  137.6535  0.0286030
   92845.0   1178.0  137.6548  0.0288840
   92556.0   1188.0  137.4123  0.0291560
   92268.0   1199.0  137.1024  0.0294930
   91981.0   1210.0  137.1303  0.0297350
   91696.0   1220.0  137.0661  0.0301060
   91413.0   1231.0  137.2329  0.0303820
   91131.0   1242.0  137.3913  0.0304490
   90850.0   1253.0  137.3004  0.0307220
   90569.0   1265.0  136.8974  0.0311560
   90289.0   1275.0  136.8561  0.0314470
   90011.0   1286.0  136.9325  0.0316940
   89735.0   1298.0  136.7352  0.0319650
   89459.0   1310.0  136.2915  0.0324400
   89185.0   1321.0  136.0030  0.0328140
   88912.0   1331.0  135.7240  0.0330980
   88641.0   1343.0  135.6434  0.0332680
   88081.0   1366.0  135.5571  0.0338120
   87815.0   1378.0  135.1072  0.0340210
   87551.0   1390.0  134.4854  0.0348180
   87288.0   1401.0  133.6457  0.0354160
   87026.0   1412.0  132.9552  0.0357390
   86766.0   1424.0  132.9719  0.0361790
   86507.0   1435.0  132.9017  0.0364680
   86250.0   1447.0  132.6714  0.0367000
   85994.0   1459.0  132.5719  0.0371010
   85739.0   1471.0  132.4708  0.0374910
   85485.0   1483.0  132.3132  0.0377540
   85232.0   1495.0  132.1957  0.0380020
   84981.0   1507.0  132.0179  0.0382560
   84731.0   1520.0  131.5164  0.0387040
   84482.0   1532.0  131.0046  0.0393290
   84234.0   1545.0  130.5808  0.0396680
   83988.0   1557.0  130.0978  0.0402910
   83743.0   1570.0  129.8956  0.0406910
   83229.0   1596.0  129.6106  0.0413960
   82989.0   1608.0  129.0964  0.0418730
   82749.0   1621.0  128.6239  0.0425560
   82511.0   1634.0  128.3749  0.0428720
   82274.0   1647.0  128.3501  0.0431820
   82038.0   1660.0  128.0624  0.0437060
   81804.0   1673.0  127.8875  0.0441790
   81570.0   1686.0  127.7881  0.0444400
   81338.0   1700.0  127.7715  0.0449130
   81107.0   1713.0  127.6947  0.0452830
   80878.0   1726.0  127.5011  0.0456190
   80650.0   1740.0  127.2561  0.0461530
   80423.0   1753.0  126.6993  0.0466120
   80198.0   1767.0  125.9513  0.0471770
   79973.0   1781.0  125.7450  0.0477810
   79750.0   1794.0  125.2253  0.0482140
   79528.0   1808.0  125.0140  0.0487520
   79307.0   1821.0  124.9076  0.0493470
   79087.0   1835.0  124.6756  0.0497170
   78867.0   1849.0  124.4545  0.0501770
   78648.0   1863.0  124.0979  0.0506670
   78431.0   1877.0  123.7050  0.0511830
   78214.0   1891.0  123.3761  0.0518280
   77999.0   1906.0  122.9315  0.0523980
   77785.0   1921.0  122.2179  0.0532350
   77572.0   1935.0  121.3538  0.0540390
   77360.0   1949.0  120.7682  0.0546260
   76899.0   1980.0  120.4561  0.0555980
   76694.0   1994.0  120.3431  0.0560910
   76490.0   2009.0  120.2342  0.0564100
   76286.0   2024.0  120.1798  0.0569850
   76084.0   2039.0  119.6024  0.0578760
   75883.0   2054.0  118.5738  0.0587180
   75682.0   2068.0  117.9785  0.0594280
   75483.0   2083.0  117.8700  0.0598030
   75285.0   2099.0  117.9015  0.0602390
   75088.0   2114.0  117.9244  0.0606100
   74890.0   2129.0  117.8110  0.0612870
   74693.0   2145.0  117.3851  0.0619470
   74498.0   2160.0  116.8054  0.0625520
   74303.0   2176.0  116.4182  0.0631950
   74109.0   2192.0  116.1064  0.0639130
   73916.0   2208.0  115.8810  0.0645080
   73724.0   2224.0  115.6019  0.0650980
   73533.0   2239.0  115.1615  0.0657060
   73130.0   2274.0  114.8379  0.0670400
   72942.0   2290.0  114.5742  0.0678190
   72755.0   2306.0  114.1039  0.0685070
   72569.0   2323.0  113.7995  0.0689710
   72383.0   2339.0  113.4218  0.0698210
   72199.0   2356.0  112.8602  0.0708660
   72016.0   2373.0  112.3608  0.0715760
   71834.0   2389.0  112.0816  0.0722510
   71652.0   2406.0  111.6980  0.0730590
   71472.0   2423.0  110.7979  0.0740010
   71292.0   2441.0  110.2135  0.0750100
   71113.0   2458.0  108.9747  0.0763510
   70935.0   2476.0  107.6919  0.0776580
   70759.0   2494.0  107.0380  0.0785840
   70584.0   2512.0  106.4658  0.0796270
   70411.0   2530.0  105.9105  0.0807450
   70238.0   2548.0  105.6470  0.0813870
   70067.0   2565.0  105.4044  0.0819830
   69896.0   2584.0  105.1953  0.0828490
   69727.0   2601.0  104.9272  0.0836010
   69559.0   2619.0  104.6506  0.0844000
   69391.0   2636.0  104.4276  0.0849880
   69225.0   2656.0  103.9429  0.0861890
   69059.0   2674.0  103.0941  0.0875060
   68894.0   2693.0  102.7672  0.0883190
   68731.0   2711.0  102.5121  0.0892320
   68568.0   2729.0  102.3450  0.0899450
   68220.0   2769.0  101.6221  0.0918910
   68060.0   2787.0  101.0542  0.0928800
   67902.0   2807.0  100.0700  0.0943070
   67745.0   2827.0   99.4317  0.0956400
   67588.0   2846.0   98.9222  0.0967550
   67433.0   2865.0   98.3677  0.0976020
   67278.0   2886.0   97.6516  0.0991150
   67125.0   2906.0   96.8306  0.1008100
   66973.0   2925.0   96.3281  0.1018400
   66821.0   2945.0   95.7701  0.1032300
   66670.0   2966.0   95.1436  0.1047100
   66520.0   2985.0   93.8227  0.1068000
   66372.0   3006.0   93.2995  0.1083100
   66224.0   3027.0   92.9352  0.1095400
   66077.0   3048.0   92.5598  0.1108100
   65932.0   3069.0   91.9974  0.1122200
   65787.0   3090.0   91.5026  0.1136100
   65643.0   3111.0   91.2121  0.1148700
   65335.0   3157.0   90.2608  0.1178600
   65195.0   3178.0   89.6643  0.1193300
   65056.0   3200.0   89.0607  0.1209800
   64918.0   3222.0   88.4477  0.1226100
   64781.0   3244.0   87.8169  0.1242200
   64645.0   3267.0   87.2609  0.1259700
   64510.0   3289.0   86.8858  0.1274000
   64375.0   3312.0   86.4213  0.1288100
   64241.0   3335.0   86.0228  0.1302600
   64108.0   3358.0   85.3737  0.1322000
   63975.0   3381.0   84.7235  0.1339200
   63844.0   3404.0   84.1934  0.1358400
   63713.0   3427.0   83.5138  0.1377200
   63583.0   3451.0   82.8051  0.1396800
   63453.0   3475.0   82.4559  0.1415100
   63325.0   3499.0   82.1821  0.1430500
   63198.0   3522.0   81.9649  0.1442900
   63071.0   3546.0   81.4783  0.1461200
   62945.0   3570.0   81.2285  0.1476300
   62820.0   3595.0   80.8336  0.1492800
   62696.0   3619.0   80.6231  0.1508200
   62572.0   3644.0   80.4184  0.1521000
   62449.0   3669.0   80.1800  0.1535800
   62327.0   3693.0   79.8892  0.1551000
   62205.0   3718.0   79.6040  0.1566100
   62084.0   3742.0   79.3317  0.1580600
   61963.0   3768.0   79.0343  0.1596000
   61707.0   3823.0   78.3970  0.1630900
   61587.0   3849.0   78.1139  0.1646800
   61469.0   3874.0   77.8814  0.1663000
   61351.0   3899.0   77.7744  0.1680300
   61233.0   3925.0   77.5580  0.1693200
   61116.0   3951.0   77.3540  0.1708700
   61000.0   3977.0   77.2404  0.1723200
   60884.0   4004.0   77.1725  0.1737500
   60769.0   4031.0   77.1211  0.1750100
   60654.0   4056.0   77.0965  0.1764600
   60541.0   4083.0   76.9568  0.1775100
   60428.0   4109.0   76.6750  0.1791300
   60315.0   4136.0   76.5542  0.1808200
   60203.0   4162.0   76.4477  0.1823100
   60091.0   4189.0   76.1580  0.1836500
   59980.0   4217.0   75.7335  0.1856600
   59870.0   4244.0   75.4721  0.1878400
   59760.0   4272.0   75.3803  0.1895500
   59525.0   4330.0   75.1723  0.1927700
   59415.0   4359.0   75.0730  0.1942400
   59307.0   4386.0   75.0804  0.1958500
   59198.0   4414.0   75.1477  0.1969700
   59090.0   4442.0   75.1946  0.1980400
   58983.0   4470.0   75.1343  0.1992000
   58875.0   4499.0   75.0426  0.2004900
   58769.0   4528.0   74.9396  0.2019400
   58662.0   4558.0   74.8555  0.2033500
   58556.0   4585.0   74.7872  0.2051200
   58451.0   4614.0   74.5949  0.2066500
   58346.0   4643.0   74.3759  0.2083300
   58241.0   4670.0   74.1779  0.2103700
   58137.0   4699.0   74.0740  0.2121600
   58033.0   4728.0   73.9764  0.2138800
   57930.0   4758.0   73.8673  0.2152600
   57827.0   4786.0   73.7705  0.2170200
   57725.0   4817.0   73.7410  0.2184200
   57622.0   4845.0   73.7055  0.2202800
   57521.0   4875.0   73.5780  0.2215100
   57419.0   4905.0   73.4655  0.2230300
   57318.0   4935.0   73.4409  0.2249300
   57217.0   4965.0   73.4292  0.2263900
   57117.0   4995.0   73.3212  0.2277700
   57017.0   5025.0   73.2120  0.2294400
   56917.0   5055.0   73.1075  0.2311900
   56818.0   5086.0   73.0215  0.2328000
   56606.0   5152.0   72.8470  0.2364300
   56508.0   5183.0   72.7872  0.2380800
   56410.0   5214.0   72.7844  0.2397300
   56312.0   5244.0   72.7676  0.2413200
   56214.0   5276.0   72.7341  0.2426500
   56117.0   5306.0   72.6637  0.2443000
   56020.0   5338.0   72.6495  0.2458400
   55924.0   5369.0   72.5733  0.2474100
   55827.0   5400.0   72.5717  0.2491300
   55732.0   5432.0   72.5301  0.2505600
   55636.0   5464.0   72.4683  0.2520800
   55541.0   5495.0   72.4092  0.2537600
   55446.0   5527.0   72.3766  0.2555400
   55352.0   5559.0   72.3494  0.2571200
   55258.0   5592.0   72.2786  0.2585700
   55164.0   5625.0   72.1865  0.2602200
   55070.0   5656.0   72.1019  0.2621800
   54977.0   5688.0   72.0279  0.2640500
   54778.0   5758.0   71.8405  0.2678600
   54685.0   5791.0   71.8038  0.2697100
   54593.0   5824.0   71.8141  0.2714500
   54501.0   5856.0   71.8125  0.2730900
   54409.0   5889.0   71.8126  0.2746300
   54317.0   5922.0   71.7748  0.2761700
   54226.0   5954.0   71.7170  0.2778800
   54135.0   5988.0   71.6698  0.2795400
   54044.0   6022.0   71.6363  0.2812200
   53954.0   6056.0   71.5939  0.2829200
   53864.0   6090.0   71.5342  0.2845600
   53775.0   6124.0   71.4795  0.2864100
   53686.0   6157.0   71.3888  0.2883600
   53598.0   6191.0   71.3712  0.2902000
   53509.0   6226.0   71.4108  0.2918900
   53421.0   6259.0   71.3765  0.2935000
   53333.0   6292.0   71.3530  0.2952300
   53246.0   6326.0   71.3212  0.2969300
   53159.0   6361.0   71.2886  0.2985200
   53071.0   6395.0   71.2595  0.3002200
   52985.0   6430.0   71.2207  0.3020300
   52898.0   6465.0   71.1989  0.3038200
   52812.0   6500.0   71.2085  0.3055200
   52726.0   6536.0   71.1884  0.3071500
   52640.0   6570.0   71.2280  0.3088400
   52554.0   6605.0   71.2540  0.3105700
   52469.0   6640.0   71.2602  0.3120200
   52286.0   6714.0   71.1191  0.3157700
   52201.0   6749.0   71.1358  0.3177200
   52116.0   6785.0   71.1398  0.3194700
   52032.0   6821.0   71.1274  0.3210300
   51948.0   6857.0   71.1247  0.3227200
   51864.0   6894.0   71.1398  0.3243900
   51780.0   6929.0   71.1324  0.3261000
   51696.0   6965.0   71.1136  0.3279100
   51613.0   7002.0   71.0795  0.3295700
   51530.0   7038.0   71.0267  0.3313600
   51447.0   7073.0   71.0110  0.3333800
   51364.0   7110.0   70.9448  0.3353200
   51282.0   7148.0   70.9039  0.3370300
   51199.0   7185.0   70.8892  0.3390000
   51117.0   7221.0   70.8943  0.3410100
   51036.0   7258.0   70.8827  0.3428700
   50954.0   7294.0   70.8573  0.3445900
   50873.0   7331.0   70.8487  0.3464700
   50699.0   7412.0   70.8158  0.3503100
   50618.0   7449.0   70.7963  0.3522100
   50537.0   7487.0   70.7863  0.3541000
   50457.0   7525.0   70.8059  0.3559000
   50377.0   7562.0   70.8512  0.3577100
   50297.0   7599.0   70.8384  0.3594800
   50217.0   7639.0   70.9006  0.3610600
   50137.0   7676.0   70.9306  0.3626600
   50058.0   7714.0   70.9111  0.3644000
   49978.0   7752.0   70.8996  0.3660900
   49899.0   7790.0   70.8936  0.3679800
   49821.0   7828.0   70.8692  0.3698400
   49742.0   7866.0   70.8407  0.3717500
   49664.0   7906.0   70.8421  0.3736600
   49586.0   7944.0   70.8513  0.3754900
   49508.0   7982.0   70.7608  0.3774700
   49430.0   8021.0   70.6780  0.3793900
   49353.0   8060.0   70.6248  0.3816500
   49276.0   8100.0   70.6199  0.3839000
   49199.0   8139.0   70.6662  0.3859100
   49122.0   8178.0   70.6448  0.3878400
   49046.0   8217.0   70.5634  0.3895300
   48969.0   8259.0   70.5261  0.3915500
   48893.0   8297.0   70.5213  0.3936300
   48817.0   8340.0   70.5257  0.3959900
   48742.0   8379.0   70.5536  0.3974900
   48666.0   8418.0   70.4958  0.3996300
   48505.0   8504.0   70.5077  0.4039900
   48430.0   8544.0   70.5057  0.4058700
   48355.0   8585.0   70.5175  0.4077500
   48280.0   8627.0   70.4973  0.4095900
   48205.0   8666.0   70.4651  0.4113700
   48131.0   8707.0   70.4707  0.4137000
   48057.0   8749.0   70.5062  0.4156800
   47983.0   8789.0   70.4931  0.4174800
   47909.0   8830.0   70.4405  0.4194400
   47835.0   8870.0   70.4145  0.4214000
   47761.0   8913.0   70.4186  0.4237700
   47688.0   8953.0   70.4289  0.4256000
   47615.0   8995.0   70.4483  0.4278300
   47542.0   9037.0   70.4761  0.4296300
   47469.0   9078.0   70.5225  0.4314500
   47396.0   9119.0   70.5474  0.4333700
   47324.0   9162.0   70.5423  0.4351100
   47251.0   9203.0   70.4800  0.4367700
   47098.0   9292.0   70.3374  0.4415500
   47026.0   9335.0   70.3335  0.4439600
   46955.0   9377.0   70.3571  0.4463400
   46883.0   9421.0   70.3839  0.4485200
   46811.0   9462.0   70.3823  0.4503000
   46740.0   9506.0   70.4087  0.4523800
   46669.0   9547.0   70.4428  0.4542400
   46598.0   9590.0   70.3990  0.4563100
   46527.0   9635.0   70.3665  0.4580800
   46456.0   9676.0   70.3782  0.4601400
   46386.0   9720.0   70.3677  0.4626500
   46316.0   9763.0   70.3896  0.4645700
   46246.0   9807.0   70.4329  0.4666700
   46176.0   9849.0   70.4460  0.4685900
   46107.0   9893.0   70.4517  0.4705300
   46038.0   9934.0   70.4401  0.4723700
   45968.0   9980.0   70.4566  0.4745800
   45899.0  10023.0   70.4573  0.4764400
   45830.0  10066.0   70.4425  0.4785200
   45761.0  10111.0   70.4178  0.4807000
   45692.0  10154.0   70.3612  0.4827700
   45623.0  10198.0   70.3565  0.4850600
   45554.0  10242.0   70.3736  0.4876200
   45485.0  10284.0   70.3808  0.4898800
   45417.0  10328.0   70.3926  0.4920400
   45348.0  10373.0   70.4088  0.4939800
   45280.0  10419.0   70.4243  0.4960300
   45135.0  10514.0   70.4213  0.5003500
   45067.0  10559.0   70.3906  0.5025100
   45000.0  10604.0   70.3520  0.5046300
   44933.0  10649.0   70.3576  0.5069400
   44866.0  10693.0   70.3689  0.5093700
   44799.0  10739.0   70.3806  0.5116700
   44732.0  10784.0   70.3934  0.5136900
   44665.0  10832.0   70.3938  0.5157200
   44599.0  10878.0   70.4169  0.5177200
   44532.0  10923.0   70.4510  0.5199200
   44466.0  10969.0   70.4655  0.5221100
   44400.0  11014.0   70.4718  0.5240700
   44334.0  11059.0   70.4988  0.5261400
   44268.0  11105.0   70.4863  0.5283200
   44202.0  11152.0   70.4694  0.5303400
   44137.0  11198.0   70.4494  0.5324300
   44071.0  11242.0   70.4092  0.5347900
   44006.0  11289.0   70.4201  0.5373200
   43868.0  11390.0   70.4260  0.5421100
   43803.0  11437.0   70.4363  0.5443400
   43738.0  11482.0   70.4543  0.5465900
   43674.0  11529.0   70.4718  0.5488900
   43609.0  11574.0   70.4706  0.5510300
   43545.0  11621.0   70.4415  0.5531700
   43480.0  11669.0   70.4512  0.5553700
   43416.0  11716.0   70.4051  0.5576700
   43352.0  11764.0   70.4218  0.5599900
   43288.0  11812.0   70.4218  0.5624600
   43225.0  11860.0   70.4013  0.5647500
   43161.0  11907.0   70.4111  0.5670100
   43097.0  11954.0   70.3797  0.5694900
   43034.0  12002.0   70.3575  0.5718700
   42970.0  12049.0   70.3600  0.5742800
   42907.0  12098.0   70.3818  0.5767500
   42844.0  12144.0   70.4043  0.5790900
   42781.0  12194.0   70.4049  0.5814700
   42718.0  12240.0   70.3995  0.5835100
   42655.0  12288.0   70.3819  0.5858300
   42593.0  12339.0   70.3514  0.5882000
   42530.0  12388.0   70.3615  0.5903600
   42468.0  12438.0   70.3840  0.5929800
   42406.0  12485.0   70.3923  0.5954200
   42344.0  12534.0   70.4079  0.5977300
   42282.0  12583.0   70.4177  0.6000000
   42221.0  12632.0   70.4074  0.6021600
   42084.0  12739.0   70.3973  0.6074800
   42023.0  12789.0   70.3905  0.6098600
   41962.0  12837.0   70.4068  0.6121800
   41902.0  12887.0   70.4272  0.6146100
   41841.0  12937.0   70.4081  0.6168900
   41781.0  12986.0   70.4260  0.6189600
   41721.0  13037.0   70.4570  0.6214700
   41660.0  13088.0   70.4252  0.6238500
   41600.0  13137.0   70.4304  0.6259000
   41540.0  13187.0   70.4306  0.6283800
   41480.0  13238.0   70.4552  0.6310100
   41420.0  13288.0   70.4631  0.6333400
   41360.0  13338.0   70.4474  0.6356300
   41300.0  13387.0   70.4401  0.6380100
   41240.0  13437.0   70.4133  0.6406000
   41180.0  13488.0   70.3951  0.6431400
   41120.0  13541.0   70.3726  0.6457000
   41061.0  13592.0   70.3730  0.6482200
   40934.0  13702.0   70.3928  0.6538300
   40874.0  13753.0   70.3896  0.6562800
   40815.0  13803.0   70.3905  0.6586400
   40756.0  13857.0   70.4188  0.6611700
   40698.0  13908.0   70.4302  0.6635900
   40639.0  13962.0   70.4409  0.6659100
   40580.0  14014.0   70.4758  0.6682000
   40522.0  14065.0   70.4943  0.6704800
   40463.0  14116.0   70.4844  0.6729100
   40405.0  14170.0   70.4675  0.6752800
   40347.0  14221.0   70.4889  0.6776600
   40289.0  14273.0   70.5007  0.6802600
   40231.0  14324.0   70.4910  0.6828500
   40173.0  14378.0   70.5051  0.6851900
   40115.0  14429.0   70.5080  0.6876300
   40057.0  14483.0   70.5089  0.6902200
   40000.0  14533.0   70.4963  0.6926900
   39942.0  14586.0   70.5021  0.6951800
   39885.0  14639.0   70.5202  0.6978700
   39828.0  14694.0   70.5137  0.7003800
   39771.0  14746.0   70.5409  0.7026300
   39714.0  14799.0   70.5677  0.7051600
   39657.0  14853.0   70.6282  0.7078100
   39600.0  14907.0   70.6335  0.7099900
   39544.0  14959.0   70.6504  0.7120600
   39487.0  15015.0   70.6374  0.7143600
   39431.0  15068.0   70.6180  0.7167400
   39305.0  15182.0   70.5953  0.7229300
   39249.0  15237.0   70.5859  0.7256400
   39194.0  15292.0   70.5834  0.7281500
   39138.0  15346.0   70.6102  0.7307000
   39083.0  15400.0   70.6292  0.7333600
   39027.0  15456.0   70.5813  0.7360100
   38972.0  15510.0   70.5465  0.7382500
   38917.0  15564.0   70.5357  0.7408900
   38862.0  15618.0   70.5313  0.7440400
   38807.0  15675.0   70.5068  0.7469400
   38751.0  15728.0   70.5293  0.7496100
   38696.0  15785.0   70.5506  0.7524200
   38641.0  15841.0   70.5563  0.7552800
   38586.0  15894.0   70.5527  0.7574900
   38531.0  15950.0   70.5648  0.7601700
   38476.0  16003.0   70.5734  0.7628800
   38421.0  16059.0   70.5561  0.7654700
   38366.0  16116.0   70.5445  0.7680800
   38249.0  16236.0   70.5634  0.7739400
   38194.0  16293.0   70.6043  0.7766800
   38140.0  16348.0   70.6255  0.7792400
   38085.0  16403.0   70.6310  0.7817900
   38031.0  16461.0   70.6524  0.7842200
   37977.0  16516.0   70.6665  0.7867000
   37923.0  16572.0   70.6567  0.7891900
   37869.0  16630.0   70.6096  0.7918300
   37815.0  16687.0   70.5710  0.7944600
   37761.0  16743.0   70.5661  0.7973600
   37707.0  16800.0   70.5795  0.8007600
   37654.0  16856.0   70.6208  0.8037800
   37600.0  16916.0   70.6643  0.8064900
   37547.0  16971.0   70.6873  0.8089000
   37494.0  17031.0   70.7046  0.8111500
   37441.0  17088.0   70.7204  0.8135800
   37388.0  17144.0   70.7190  0.8158900
   37335.0  17199.0   70.7141  0.8186100
   37282.0  17260.0   70.7170  0.8214300
   37229.0  17319.0   70.7253  0.8241300
   37176.0  17375.0   70.7195  0.8267400
   37123.0  17434.0   70.7181  0.8295900
   37071.0  17491.0   70.7324  0.8324400
   37018.0  17550.0   70.7450  0.8352200
   36966.0  17610.0   70.7915  0.8380000
   36913.0  17665.0   70.7778  0.8405400
   36861.0  17725.0   70.8045  0.8431900
   36748.0  17848.0   70.8318  0.8489000
   36696.0  17909.0   70.8182  0.8515400
   36645.0  17968.0   70.7974  0.8540700
   36593.0  18026.0   70.7945  0.8567800
   36542.0  18083.0   70.7962  0.8597800
   36490.0  18142.0   70.7999  0.8629400
   36439.0  18201.0   70.8263  0.8659100
   36388.0  18261.0   70.8682  0.8685300
   36337.0  18321.0   70.8977  0.8711800
   36286.0  18378.0   70.8940  0.8736900
   36234.0  18438.0   70.8849  0.8760900
   36183.0  18502.0   70.8749  0.8787800
   36132.0  18562.0   70.8206  0.8815700
   36081.0  18621.0   70.8069  0.8844100
   36030.0  18682.0   70.8205  0.8876800
   35979.0  18738.0   70.8533  0.8913500
   35928.0  18800.0   70.8726  0.8942900
   35878.0  18859.0   70.8825  0.8971300
   35771.0  18986.0   70.8993  0.9025000
   35720.0  19046.0   70.9112  0.9053100
   35670.0  19106.0   70.9262  0.9081000
   35619.0  19166.0   70.9551  0.9109500
   35569.0  19229.0   70.9822  0.9137000
   35518.0  19290.0   71.0121  0.9163300
   35468.0  19351.0   71.0411  0.9188000
   35418.0  19412.0   71.0694  0.9214800
   35368.0  19474.0   71.0948  0.9240700
   35318.0  19536.0   71.1304  0.9266300
   35268.0  19595.0   71.1361  0.9292000
   35218.0  19657.0   71.1131  0.9317900
   35169.0  19719.0   71.1041  0.9344500
   35119.0  19782.0   71.0968  0.9373100
   35070.0  19842.0   71.1158  0.9389600
   35020.0  19902.0   71.1046  0.9371100
   34971.0  19962.0   71.1253  0.9402300
   34922.0  20023.0   71.1559  0.9430300
   34872.0  20087.0   71.1526  0.9460100
   34823.0  20148.0   71.1804  0.9485700
   34774.0  20212.0   71.1853  0.9510800
   34725.0  20271.0   71.1564  0.9540600
   34676.0  20335.0   71.1396  0.9567000
   34627.0  20397.0   71.1562  0.9599600
   34579.0  20457.0   71.1664  0.9630200
   34530.0  20519.0   71.1805  0.9663100
   34481.0  20585.0   71.2174  0.9692500
   34376.0  20717.0   71.1502  0.9749700
   34328.0  20780.0   71.1621  0.9780700
   34279.0  20844.0   71.1779  0.9814900
   34231.0  20908.0   71.2219  0.9846800
   34183.0  20969.0   71.2320  0.9874700
   34135.0  21034.0   71.2671  0.9902000
   34087.0  21098.0   71.3058  0.9927400
   34039.0  21160.0   71.3015  0.9953800
   33991.0  21222.0   71.2644  0.9978600
   33943.0  21287.0   71.2562  1.0007000
   33895.0  21350.0   71.2875  1.0040000
   33848.0  21415.0   71.3007  1.0072000
   33800.0  21475.0   71.3023  1.0104000
   33753.0  21545.0   71.3289  1.0129000
   33705.0  21608.0   71.3813  1.0160000
   33658.0  21675.0   71.4156  1.0185000
   33611.0  21739.0   71.4078  1.0213000
   33564.0  21806.0   71.3945  1.0234000
   33461.0  21941.0   71.3913  1.0301000
   33414.0  22006.0   71.3999  1.0335000
   33367.0  22075.0   71.4076  1.0366000
   33320.0  22137.0   71.4052  1.0396000
   33273.0  22202.0   71.4109  1.0424000
   33226.0  22268.0   71.4206  1.0458000
   33180.0  22334.0   71.4396  1.0487000
   33133.0  22397.0   71.4309  1.0517000
   33086.0  22464.0   71.4633  1.0547000
   33040.0  22527.0   71.4921  1.0577000
   32993.0  22594.0   71.5060  1.0607000
   32946.0  22661.0   71.5066  1.0635000
   32900.0  22722.0   71.4992  1.0660000
   32853.0  22790.0   71.4961  1.0690000
   32806.0  22858.0   71.5017  1.0726000
   32760.0  22926.0   71.5080  1.0755000
   32714.0  22988.0   71.5096  1.0786000
   32667.0  23056.0   71.5159  1.0818000
   32621.0  23125.0   71.5380  1.0852000
   32575.0  23188.0   71.5901  1.0880000
   32530.0  23254.0   71.6132  1.0909000
   32484.0  23320.0   71.6520  1.0940000
   32439.0  23387.0   71.6701  1.0961000
   32393.0  23457.0   71.6774  1.0988000
   32348.0  23524.0   71.6867  1.1014000
   32303.0  23591.0   71.6926  1.1040000
   32258.0  23659.0   71.6927  1.1072000
   32161.0  23802.0   71.7020  1.1139000
   32116.0  23870.0   71.7194  1.1171000
   32071.0  23935.0   71.7570  1.1202000
   32026.0  24004.0   71.7740  1.1233000
   31981.0  24069.0   71.7821  1.1263000
   31935.0  24138.0   71.7749  1.1288000
   31890.0  24204.0   71.8043  1.1319000
   31845.0  24270.0   71.8186  1.1349000
   31801.0  24341.0   71.8402  1.1382000
   31756.0  24407.0   71.8563  1.1410000
   31711.0  24474.0   71.8659  1.1438000
   31666.0  24541.0   71.8868  1.1468000
   31621.0  24612.0   71.9129  1.1499000
   31577.0  24680.0   71.9264  1.1528000
   31532.0  24748.0   71.9524  1.1555000
   31488.0  24816.0   71.9597  1.1585000
   31443.0  24884.0   71.9667  1.1616000
   31399.0  24952.0   71.9635  1.1644000
   31304.0  25098.0   71.9786  1.1711000
   31260.0  25171.0   71.9982  1.1745000
   31215.0  25241.0   72.0219  1.1775000
   31171.0  25307.0   72.0426  1.1805000
   31127.0  25377.0   72.0673  1.1836000
   31083.0  25443.0   72.0842  1.1868000
   31039.0  25514.0   72.0885  1.1895000
   30995.0  25585.0   72.1039  1.1925000
   30952.0  25652.0   72.1131  1.1953000
   30908.0  25723.0   72.0848  1.1984000
   30864.0  25791.0   72.0980  1.2018000
   30820.0  25863.0   72.0912  1.2048000
   30776.0  25931.0   72.0959  1.2089000
   30732.0  25999.0   72.0810  1.2118000
   30688.0  26072.0   72.0839  1.2155000
   30645.0  26141.0   72.0917  1.2188000
   30601.0  26214.0   72.1032  1.2222000
   30558.0  26287.0   72.1353  1.2256000
   30514.0  26353.0   72.1517  1.2287000
   30471.0  26427.0   72.1474  1.2317000
   30428.0  26497.0   72.1808  1.2350000
   30386.0  26563.0   72.1907  1.2375000
   30343.0  26638.0   72.2027  1.2410000
   30300.0  26709.0   72.2157  1.2441000
   30257.0  26784.0   72.2416  1.2468000
   30215.0  26856.0   72.2655  1.2501000
   30172.0  26927.0   72.2756  1.2529000
   30081.0  27076.0   72.2722  1.2595000
   30038.0  27148.0   72.2879  1.2630000
   29995.0  27221.0   72.3120  1.2663000
   29953.0  27290.0   72.3363  1.2696000
   29910.0  27363.0   72.3561  1.2728000
   29868.0  27432.0   72.3720  1.2759000
   29825.0  27506.0   72.4078  1.2786000
   29783.0  27575.0   72.4274  1.2818000
   29741.0  27650.0   72.4322  1.2846000
   29698.0  27724.0   72.4488  1.2876000
   29656.0  27799.0   72.4846  1.2905000
   29614.0  27870.0   72.5258  1.2937000
   29572.0  27945.0   72.5525  1.2967000
   29530.0  28016.0   72.5756  1.2998000
   29488.0  28088.0   72.6022  1.3021000
   29446.0  28159.0   72.6115  1.3053000
   29405.0  28231.0   72.6198  1.3082000
   29363.0  28303.0   72.6413  1.3111000
   29273.0  28462.0   72.6696  1.3181000
   29231.0  28535.0   72.6832  1.3211000
   29190.0  28604.0   72.6817  1.3243000
   29148.0  28682.0   72.6922  1.3276000
   29106.0  28751.0   72.7018  1.3312000
   29064.0  28825.0   72.7266  1.3342000
   29023.0  28899.0   72.7475  1.3378000
   28981.0  28974.0   72.7495  1.3409000
   28940.0  29049.0   72.7322  1.3438000
   28898.0  29124.0   72.6938  1.3470000
   28857.0  29199.0   72.7055  1.3505000
   28816.0  29275.0   72.7285  1.3544000
   28774.0  29346.0   72.7492  1.3586000
   28733.0  29422.0   72.7709  1.3620000
   28692.0  29494.0   72.7894  1.3652000
   28651.0  29570.0   72.8136  1.3680000
   28610.0  29647.0   72.8533  1.3714000
   28569.0  29720.0   72.8926  1.3742000
   28528.0  29792.0   72.8968  1.3771000
   28487.0  29870.0   72.8880  1.3802000
   28446.0  29943.0   72.9002  1.3829000
   28406.0  30022.0   72.9339  1.3861000
   28365.0  30095.0   72.9842  1.3900000
   28324.0  30174.0   73.0007  1.3930000
   28284.0  30248.0   73.0035  1.3960000
   28243.0  30323.0   72.9954  1.3983000
   28203.0  30393.0   73.0152  1.4018000
   28116.0  30558.0   73.0485  1.4097000
   28076.0  30633.0   73.0817  1.4125000
   28036.0  30709.0   73.0861  1.4157000
   27995.0  30790.0   73.0990  1.4190000
   27955.0  30867.0   73.1237  1.4220000
   27915.0  30938.0   73.1252  1.4251000
   27875.0  31010.0   73.1320  1.4286000
   27835.0  31087.0   73.1571  1.4321000
   27794.0  31164.0   73.1832  1.4358000
   27754.0  31242.0   73.1885  1.4388000
   27714.0  31320.0   73.2104  1.4418000
   27674.0  31388.0   73.2434  1.4449000
   27635.0  31471.0   73.2498  1.4483000
   27595.0  31545.0   73.2585  1.4519000
   27555.0  31624.0   73.2662  1.4542000
   27515.0  31698.0   73.2937  1.4581000
   27475.0  31772.0   73.3239  1.4613000
   27436.0  31852.0   73.3390  1.4649000
   27349.0  32012.0   73.3744  1.4714000
   27309.0  32087.0   73.3705  1.4749000
   27270.0  32168.0   73.3681  1.4781000
   27231.0  32250.0   73.3890  1.4814000
   27192.0  32326.0   73.4151  1.4848000
   27153.0  32402.0   73.4175  1.4883000
   27114.0  32484.0   73.4101  1.4917000
   27075.0  32561.0   73.4242  1.4949000
   27036.0  32638.0   73.4344  1.4983000
   26997.0  32721.0   73.4431  1.5023000
   26958.0  32799.0   73.4664  1.5056000
   26919.0  32876.0   73.5021  1.5089000
   26880.0  32955.0   73.5342  1.5125000
   26841.0  33033.0   73.5555  1.5157000
   26802.0  33112.0   73.5624  1.5185000
   26762.0  33191.0   73.5913  1.5216000
   26723.0  33270.0   73.6053  1.5249000
   26685.0  33350.0   73.6155  1.5282000
   26646.0  33435.0   73.6384  1.5313000
   26607.0  33515.0   73.6688  1.5347000
   26568.0  33590.0   73.6893  1.5378000
   26530.0  33671.0   73.7006  1.5412000
   26491.0  33752.0   73.7097  1.5446000
   26453.0  33833.0   73.7140  1.5475000
   26414.0  33908.0   73.6969  1.5510000
   26376.0  33996.0   73.6886  1.5545000
   26338.0  34072.0   73.7414  1.5584000
   26255.0  34237.0   73.8053  1.5668000
   26198.0  34352.0   73.8338  1.5708000
   26121.0  34516.0   73.8829  1.5769000
   26045.0  34679.0   73.9133  1.5832000
   25968.0  34842.0   73.9158  1.5899000
   25930.0  34924.0   73.9256  1.5934000
   25854.0  35087.0   73.9556  1.6009000
   25779.0  35249.0   73.9925  1.6078000
   25703.0  35411.0   74.0274  1.6146000
   25627.0  35572.0   74.0629  1.6214000
   25525.0  35791.0   74.1271  1.6305000
   25487.0  35872.0   74.1495  1.6338000
   25450.0  35952.0   74.1831  1.6370000
   25413.0  36032.0   74.2126  1.6402000
   25376.0  36112.0   74.2380  1.6432000
   25339.0  36204.0   74.2490  1.6462000
   25302.0  36284.0   74.2494  1.6492000
   25265.0  36364.0   74.2757  1.6519000
   25228.0  36444.0   74.2997  1.6560000
   25191.0  36524.0   74.3186  1.6598000
   25154.0  36603.0   74.3258  1.6630000
   25117.0  36694.0   74.3410  1.6662000
   25079.0  36774.0   74.3678  1.6697000
   25042.0  36853.0   74.3895  1.6729000
   25005.0  36932.0   74.4162  1.6768000
   24968.0  37012.0   74.4559  1.6800000
   24931.0  37102.0   74.4813  1.6833000
   24893.0  37181.0   74.5024  1.6862000
   24856.0  37271.0   74.5310  1.6888000
   24820.0  37350.0   74.5561  1.6923000
   24783.0  37429.0   74.5824  1.6953000
   24746.0  37519.0   74.5997  1.6989000
   24709.0  37598.0   74.6275  1.7020000
   24672.0  37676.0   74.6525  1.7049000
   24636.0  37766.0   74.6750  1.7087000
   24599.0  37855.0   74.7044  1.7117000
   24563.0  37934.0   74.7166  1.7144000
   24484.0  38112.0   74.7350  1.7220000
   24447.0  38201.0   74.7644  1.7255000
   24411.0  38279.0   74.7813  1.7289000
   24374.0  38368.0   74.7991  1.7325000
   24338.0  38446.0   74.8105  1.7361000
   24301.0  38535.0   74.8172  1.7393000
   24265.0  38624.0   74.8420  1.7430000
   24229.0  38712.0   74.8799  1.7462000
   24192.0  38790.0   74.8985  1.7498000
   24156.0  38878.0   74.9117  1.7531000
   24120.0  38966.0   74.9474  1.7566000
   24083.0  39054.0   74.9575  1.7596000
   24047.0  39142.0   74.9528  1.7630000
   24011.0  39219.0   74.9838  1.7661000
   23975.0  39307.0   75.0107  1.7699000
   23939.0  39395.0   75.0381  1.7744000
   23903.0  39482.0   75.0520  1.7769000
   23866.0  39559.0   75.0718  1.7802000
   23787.0  39744.0   75.1145  1.7882000
   23752.0  39831.0   75.1187  1.7911000
   23716.0  39919.0   75.1303  1.7945000
   23681.0  39995.0   75.1509  1.7979000
   23645.0  40082.0   75.1753  1.8018000
   23610.0  40168.0   75.2045  1.8057000
   23574.0  40255.0   75.2273  1.8086000
   23539.0  40342.0   75.2512  1.8117000
   23504.0  40428.0   75.2799  1.8149000
   23468.0  40504.0   75.2927  1.8183000
   23432.0  40590.0   75.2979  1.8217000
   23397.0  40676.0   75.2892  1.8253000
   23361.0  40773.0   75.2978  1.8288000
   23325.0  40859.0   75.3005  1.8326000
   23290.0  40945.0   75.2942  1.8363000
   23254.0  41031.0   75.3029  1.8406000
   23219.0  41117.0   75.3061  1.8447000
   23183.0  41202.0   75.2942  1.8489000
   23148.0  41298.0   75.3074  1.8527000
   23113.0  41373.0   75.3026  1.8566000
   23077.0  41469.0   75.3221  1.8607000
   23042.0  41554.0   75.3514  1.8650000
   23007.0  41639.0   75.3572  1.8683000
   22972.0  41724.0   75.3766  1.8721000
   22937.0  41820.0   75.4063  1.8755000
   22902.0  41904.0   75.4409  1.8791000
   22867.0  41989.0   75.4711  1.8822000
   22793.0  42179.0   75.5086  1.8891000
   22758.0  42263.0   75.5291  1.8923000
   22723.0  42358.0   75.5519  1.8960000
   22688.0  42442.0   75.5855  1.8995000
   22653.0  42526.0   75.6088  1.9027000
   22618.0  42621.0   75.6321  1.9064000
   22584.0  42705.0   75.6614  1.9094000
   22549.0  42788.0   75.6785  1.9126000
   22514.0  42882.0   75.7054  1.9163000
   22479.0  42976.0   75.7430  1.9195000
   22444.0  43060.0   75.7743  1.9226000
   22410.0  43143.0   75.7995  1.9259000
   22375.0  43226.0   75.8282  1.9294000
   22340.0  43320.0   75.8570  1.9326000
   22305.0  43413.0   75.8479  1.9357000
   22271.0  43506.0   75.8622  1.9386000
   22236.0  43599.0   75.8859  1.9424000
   22201.0  43682.0   75.8953  1.9465000
   22126.0  43878.0   75.9274  1.9547000
   22092.0  43971.0   75.9647  1.9582000
   22058.0  44063.0   75.9906  1.9617000
   22024.0  44145.0   76.0188  1.9650000
   21990.0  44238.0   76.0446  1.9683000
   21956.0  44330.0   76.0703  1.9718000
   21922.0  44422.0   76.0973  1.9747000
   21888.0  44514.0   76.1250  1.9780000
   21854.0  44595.0   76.1496  1.9813000
   21820.0  44687.0   76.1637  1.9847000
   21786.0  44779.0   76.1885  1.9883000
   21752.0  44870.0   76.2092  1.9915000
   21717.0  44962.0   76.2279  1.9951000
   21683.0  45053.0   76.2508  1.9986000
   21649.0  45144.0   76.2780  2.0021000
   21615.0  45225.0   76.2999  2.0056000
   21581.0  45316.0   76.3198  2.0092000
   21547.0  45417.0   76.3467  2.0127000
   21513.0  45507.0   76.3709  2.0157000
   21479.0  45598.0   76.3989  2.0190000
   21446.0  45688.0   76.4290  2.0226000
   21412.0  45779.0   76.4363  2.0260000
   21378.0  45869.0   76.4568  2.0293000
   21344.0  45959.0   76.4955  2.0329000
   21311.0  46049.0   76.5173  2.0365000
   21277.0  46149.0   76.5179  2.0399000
   21244.0  46238.0   76.5234  2.0428000
   21172.0  46437.0   76.5396  2.0514000
   21138.0  46527.0   76.5430  2.0554000
   21105.0  46616.0   76.5555  2.0594000
   21071.0  46705.0   76.5714  2.0635000
   21038.0  46804.0   76.5904  2.0675000
   21005.0  46893.0   76.6010  2.0710000
   20971.0  46982.0   76.6035  2.0746000
   20938.0  47080.0   76.6294  2.0786000
   20905.0  47178.0   76.6384  2.0824000
   20871.0  47267.0   76.6618  2.0859000
   20838.0  47365.0   76.6813  2.0897000
   20805.0  47453.0   76.6945  2.0936000
   20771.0  47551.0   76.6990  2.0971000
   20738.0  47639.0   76.7089  2.1010000
   20705.0  47727.0   76.7322  2.1047000
   20671.0  47824.0   76.7703  2.1091000
   20638.0  47912.0   76.7996  2.1127000
   20605.0  48009.0   76.8093  2.1158000
   20532.0  48203.0   76.8643  2.1233000
   20499.0  48300.0   76.8844  2.1269000
   20467.0  48396.0   76.9254  2.1301000
   20434.0  48483.0   76.9388  2.1335000
   20401.0  48579.0   76.9589  2.1369000
   20369.0  48666.0   76.9929  2.1403000
   20336.0  48762.0   77.0155  2.1439000
   20304.0  48858.0   77.0311  2.1472000
   20271.0  48954.0   77.0533  2.1503000
   20238.0  49050.0   77.0806  2.1539000
   20206.0  49145.0   77.0940  2.1575000
   20173.0  49241.0   77.1147  2.1611000
   20140.0  49326.0   77.1357  2.1647000
   20107.0  49422.0   77.1378  2.1686000
   20074.0  49526.0   77.1505  2.1724000
   20042.0  49621.0   77.1596  2.1758000
   20009.0  49716.0   77.1754  2.1798000
   19976.0  49811.0   77.1846  2.1840000
   19944.0  49905.0   77.1881  2.1879000
   19911.0  49999.0   77.2030  2.1919000
   19879.0  50094.0   77.2242  2.1959000
   19846.0  50197.0   77.2402  2.1999000
   19814.0  50291.0   77.2640  2.2034000
   19782.0  50385.0   77.2821  2.2070000
   19749.0  50479.0   77.2999  2.2110000
   19717.0  50572.0   77.3332  2.2146000
   19685.0  50666.0   77.3413  2.2182000
   19616.0  50871.0   77.3622  2.2258000
   19584.0  50964.0   77.3868  2.2298000
   19551.0  51057.0   77.4094  2.2339000
   19519.0  51159.0   77.4169  2.2376000
   19487.0  51252.0   77.4244  2.2410000
   19455.0  51353.0   77.4432  2.2448000
   19423.0  51446.0   77.4484  2.2489000
   19391.0  51538.0   77.4637  2.2528000
   19359.0  51630.0   77.4706  2.2569000
   19327.0  51722.0   77.5168  2.2610000
   19295.0  51823.0   77.5243  2.2649000
   19263.0  51924.0   77.5317  2.2680000
   19231.0  52016.0   77.5379  2.2714000
   19199.0  52116.0   77.5593  2.2758000
   19167.0  52207.0   77.5880  2.2799000
   19135.0  52308.0   77.6106  2.2838000
   19103.0  52408.0   77.6394  2.2872000
   19071.0  52499.0   77.6731  2.2905000
   19001.0  52708.0   77.7374  2.2980000
   18969.0  52807.0   77.7550  2.3012000
   18938.0  52907.0   77.7442  2.3044000
   18907.0  53006.0   77.7500  2.3080000
   18875.0  53105.0   77.7593  2.3125000
   18844.0  53204.0   77.7918  2.3168000
   18813.0  53303.0   77.8130  2.3208000
   18781.0  53410.0   77.8435  2.3244000
   18750.0  53509.0   77.8700  2.3276000
   18719.0  53598.0   77.8921  2.3311000
   18687.0  53697.0   77.9192  2.3350000
   18655.0  53804.0   77.9458  2.3386000
   18624.0  53893.0   77.9618  2.3417000
   18592.0  53999.0   77.9802  2.3454000
   18561.0  54097.0   78.0052  2.3491000
   18529.0  54194.0   78.0311  2.3527000
   18498.0  54292.0   78.0450  2.3565000
   18466.0  54389.0   78.0603  2.3601000
   18435.0  54486.0   78.0772  2.3638000
   18404.0  54583.0   78.1003  2.3677000
   18372.0  54688.0   78.1368  2.3716000
   18341.0  54785.0   78.1686  2.3750000
   18310.0  54882.0   78.1824  2.3782000
   18279.0  54987.0   78.1991  2.3817000
   18248.0  55083.0   78.2153  2.3851000
   18217.0  55187.0   78.2466  2.3890000
   18186.0  55292.0   78.2638  2.3928000
   18119.0  55501.0   78.3134  2.4005000
   18088.0  55605.0   78.3582  2.4042000
   18057.0  55700.0   78.3714  2.4076000
   18026.0  55795.0   78.3944  2.4110000
   17995.0  55899.0   78.4117  2.4146000
   17964.0  56002.0   78.4215  2.4182000
   17933.0  56105.0   78.4352  2.4218000
   17902.0  56200.0   78.4541  2.4258000
   17871.0  56303.0   78.4757  2.4300000
   17840.0  56406.0   78.4956  2.4339000
   17809.0  56508.0   78.5092  2.4375000
   17778.0  56602.0   78.5438  2.4412000
   17748.0  56704.0   78.5560  2.4451000
   17717.0  56806.0   78.5746  2.4488000
   17686.0  56917.0   78.6012  2.4522000
   17655.0  57019.0   78.6262  2.4559000
   17624.0  57120.0   78.6507  2.4595000
   17594.0  57213.0   78.6731  2.4633000
   17526.0  57433.0   78.7245  2.4713000
   17496.0  57534.0   78.7492  2.4747000
   17466.0  57634.0   78.7575  2.4782000
   17435.0  57735.0   78.7785  2.4820000
   17405.0  57836.0   78.7978  2.4858000
   17375.0  57936.0   78.8129  2.4896000
   17345.0  58044.0   78.8276  2.4933000
   17314.0  58144.0   78.8421  2.4971000
   17284.0  58244.0   78.8667  2.5009000
   17254.0  58344.0   78.8924  2.5050000
   17223.0  58443.0   78.9096  2.5089000
   17193.0  58551.0   78.9333  2.5124000
   17162.0  58650.0   78.9550  2.5160000
   17132.0  58758.0   78.9630  2.5197000
   17102.0  58857.0   78.9833  2.5234000
   17071.0  58955.0   78.9882  2.5274000
   17041.0  59062.0   78.9925  2.5316000
   17010.0  59160.0   79.0070  2.5357000
   16980.0  59267.0   79.0125  2.5400000
   16950.0  59373.0   79.0358  2.5442000
   16920.0  59471.0   79.0606  2.5481000
   16890.0  59577.0   79.0764  2.5522000
   16860.0  59674.0   79.0958  2.5558000
   16830.0  59780.0   79.1164  2.5596000
   16800.0  59885.0   79.1374  2.5635000
   16770.0  59990.0   79.1641  2.5670000
   16740.0  60095.0   79.1898  2.5707000
   16675.0  60321.0   79.2233  2.5785000
   16645.0  60417.0   79.2436  2.5824000
   16615.0  60522.0   79.2759  2.5866000
   16585.0  60626.0   79.2971  2.5904000
   16555.0  60738.0   79.3160  2.5938000
   16525.0  60841.0   79.3415  2.5972000
   16495.0  60945.0   79.3774  2.6009000
   16465.0  61049.0   79.3980  2.6048000
   16435.0  61160.0   79.4094  2.6082000
   16405.0  61263.0   79.4254  2.6116000
   16375.0  61374.0   79.4476  2.6156000
   16346.0  61468.0   79.4666  2.6196000
   16316.0  61579.0   79.4751  2.6235000
   16286.0  61689.0   79.4958  2.6276000
   16256.0  61799.0   79.5217  2.6312000
   16227.0  61901.0   79.5486  2.6351000
   16197.0  62003.0   79.5671  2.6390000
   16167.0  62112.0   79.5910  2.6429000
   16103.0  62330.0   79.6177  2.6508000
   16074.0  62439.0   79.6403  2.6547000
   16044.0  62548.0   79.6655  2.6587000
   16015.0  62648.0   79.6747  2.6624000
   15986.0  62757.0   79.6777  2.6661000
   15956.0  62857.0   79.6876  2.6703000
   15927.0  62965.0   79.7096  2.6744000
   15898.0  63073.0   79.7180  2.6789000
   15868.0  63180.0   79.7382  2.6828000
   15839.0  63288.0   79.7441  2.6867000
   15810.0  63395.0   79.7637  2.6909000
   15780.0  63494.0   79.7748  2.6950000
   15751.0  63601.0   79.7993  2.6993000
   15722.0  63707.0   79.8244  2.7034000
   15692.0  63821.0   79.8438  2.7072000
   15663.0  63927.0   79.8672  2.7107000
   15634.0  64033.0   79.8947  2.7142000
   15605.0  64139.0   79.9194  2.7182000
   15575.0  64245.0   79.9203  2.7220000
   15546.0  64350.0   79.9681  2.7256000
   15517.0  64463.0   79.9869  2.7295000
   15488.0  64568.0   79.9999  2.7333000
   15459.0  64673.0   80.0215  2.7362000
   15430.0  64785.0   80.0395  2.7404000
   15400.0  64889.0   80.0490  2.7445000
   15371.0  64994.0   80.0607  2.7482000
   15342.0  65105.0   80.0825  2.7525000
   15279.0  65335.0   80.1327  2.7612000
   15250.0  65439.0   80.1579  2.7650000
   15221.0  65549.0   80.1753  2.7688000
   15191.0  65660.0   80.1831  2.7727000
   15162.0  65763.0   80.1892  2.7763000
   15133.0  65873.0   80.2190  2.7805000
   15104.0  65983.0   80.2349  2.7850000
   15075.0  66092.0   80.2608  2.7889000
   15046.0  66195.0   80.3085  2.7926000
   15017.0  66304.0   80.3235  2.7965000
   14988.0  66413.0   80.3450  2.7999000
   14959.0  66522.0   80.3772  2.8029000
   14931.0  66631.0   80.4010  2.8067000
   14902.0  66739.0   80.4148  2.8103000
   14874.0  66847.0   80.4341  2.8137000
   14845.0  66962.0   80.4681  2.8176000
   14817.0  67070.0   80.4920  2.8215000
   14789.0  67178.0   80.4841  2.8249000
   14727.0  67414.0   80.5447  2.8334000
   14699.0  67521.0   80.5704  2.8376000
   14670.0  67628.0   80.5935  2.8413000
   14642.0  67741.0   80.6106  2.8449000
   14613.0  67848.0   80.6227  2.8485000
   14585.0  67954.0   80.6384  2.8521000
   14556.0  68067.0   80.6599  2.8565000
   14528.0  68180.0   80.6765  2.8605000
   14499.0  68286.0   80.6867  2.8643000
   14471.0  68391.0   80.6918  2.8682000
   14443.0  68503.0   80.7119  2.8725000
   14414.0  68615.0   80.7373  2.8770000
   14386.0  68720.0   80.7662  2.8810000
   14357.0  68824.0   80.7895  2.8849000
   14329.0  68943.0   80.8086  2.8887000
   14301.0  69054.0   80.8342  2.8921000
   14272.0  69158.0   80.8560  2.8956000
   14244.0  69275.0   80.8830  2.8996000
   14216.0  69386.0   80.9160  2.9034000
   14187.0  69496.0   80.9367  2.9068000
   14159.0  69606.0   80.9663  2.9105000
   14131.0  69716.0   80.9872  2.9139000
   14103.0  69826.0   80.9975  2.9176000
   14074.0  69942.0   81.0170  2.9213000
   14046.0  70044.0   81.0191  2.9252000
   14018.0  70153.0   81.0216  2.9293000
   13990.0  70269.0   81.0317  2.9339000
   13929.0  70506.0   81.0643  2.9435000
   13901.0  70614.0   81.0807  2.9478000
   13873.0  70722.0   81.0960  2.9520000
   13844.0  70836.0   81.1068  2.9564000
   13816.0  70944.0   81.1216  2.9604000
   13788.0  71058.0   81.1510  2.9645000
   13759.0  71171.0   81.1800  2.9689000
   13731.0  71285.0   81.2127  2.9726000
   13703.0  71391.0   81.2283  2.9761000
   13675.0  71498.0   81.2524  2.9796000
   13647.0  71617.0   81.2687  2.9835000
   13620.0  71730.0   81.2882  2.9871000
   13592.0  71835.0   81.2979  2.9906000
   13564.0  71947.0   81.3005  2.9949000
   13537.0  72059.0   81.3158  2.9991000
   13509.0  72171.0   81.3421  3.0035000
   13468.0  72335.0   81.3640  3.0098000
   13394.0  72632.0   81.3962  3.0204000
   13367.0  72746.0   81.4408  3.0245000
   13339.0  72860.0   81.4730  3.0287000
   13311.0  72974.0   81.4949  3.0325000
   13283.0  73088.0   81.5044  3.0356000
   13255.0  73201.0   81.5211  3.0392000
   13228.0  73315.0   81.5380  3.0432000
   13200.0  73417.0   81.5559  3.0476000
   13172.0  73530.0   81.5763  3.0518000
   13145.0  73654.0   81.6025  3.0559000
   13117.0  73756.0   81.6243  3.0594000
   13089.0  73868.0   81.6338  3.0633000
   13062.0  73981.0   81.6424  3.0674000
   13034.0  74104.0   81.6713  3.0714000
   13007.0  74217.0   81.6860  3.0755000
   12979.0  74329.0   81.7114  3.0795000
   12952.0  74441.0   81.7402  3.0835000
   12924.0  74553.0   81.7618  3.0876000
   12897.0  74664.0   81.7700  3.0911000
   12870.0  74787.0   81.7747  3.0947000
   12842.0  74898.0   81.7854  3.0988000
   12815.0  75009.0   81.8039  3.1032000
   12788.0  75132.0   81.8305  3.1080000
   12760.0  75243.0   81.8388  3.1122000
   12733.0  75365.0   81.8689  3.1159000
   12706.0  75475.0   81.8826  3.1199000
   12679.0  75597.0   81.9053  3.1238000
   12620.0  75828.0   81.9421  3.1324000
   12593.0  75949.0   81.9679  3.1365000
   12565.0  76059.0   82.0302  3.1405000
   12538.0  76169.0   82.0807  3.1442000
   12510.0  76290.0   82.1138  3.1473000
   12483.0  76399.0   82.1411  3.1492000
   12456.0  76509.0   82.1597  3.1519000
   12428.0  76618.0   82.1780  3.1558000
   12401.0  76738.0   82.2049  3.1595000
   12374.0  76858.0   82.2176  3.1632000
   12347.0  76966.0   82.2300  3.1668000
   12320.0  77086.0   82.2217  3.1710000
   12293.0  77194.0   82.2440  3.1755000
   12266.0  77314.0   82.2587  3.1802000
   12239.0  77422.0   82.2906  3.1848000
   12212.0  77530.0   82.3272  3.1887000
   12185.0  77649.0   82.3564  3.1925000
   12159.0  77767.0   82.3810  3.1953000
   12101.0  78015.0   82.4190  3.2026000
   12074.0  78133.0   82.4181  3.2067000
   12047.0  78240.0   82.4188  3.2110000
   12020.0  78358.0   82.4313  3.2158000
   11993.0  78475.0   82.4263  3.2208000
   11966.0  78593.0   82.4505  3.2253000
   11940.0  78710.0   82.4753  3.2299000
   11913.0  78838.0   82.4873  3.2342000
   11886.0  78955.0   82.4930  3.2378000
   11859.0  79071.0   82.5033  3.2420000
   11832.0  79188.0   82.5065  3.2469000
   11805.0  79304.0   82.5074  3.2516000
   11778.0  79421.0   82.5284  3.2564000
   11752.0  79537.0   82.5540  3.2610000
   11725.0  79653.0   82.5745  3.2654000
   11698.0  79769.0   82.5918  3.2693000
   11672.0  79884.0   82.5928  3.2730000
   11645.0  80010.0   82.6360  3.2772000
   11618.0  80126.0   82.6602  3.2814000
   11592.0  80241.0   82.6871  3.2851000
   11565.0  80366.0   82.7114  3.2887000
   11538.0  80471.0   82.7358  3.2923000
   11512.0  80596.0   82.7601  3.2960000
   11485.0  80710.0   82.7780  3.2998000
   11458.0  80825.0   82.7878  3.3035000
   11432.0  80949.0   82.8004  3.3076000
   11405.0  81074.0   82.8178  3.3118000
   11349.0  81322.0   82.8705  3.3207000
   11323.0  81436.0   82.9028  3.3246000
   11296.0  81560.0   82.9241  3.3285000
   11269.0  81673.0   82.9457  3.3320000
   11243.0  81796.0   82.9772  3.3357000
   11216.0  81909.0   82.9927  3.3396000
   11190.0  82032.0   83.0105  3.3432000
   11163.0  82145.0   83.0333  3.3472000
   11136.0  82257.0   83.0475  3.3514000
   11110.0  82390.0   83.0726  3.3555000
   11084.0  82502.0   83.1063  3.3590000
   11058.0  82624.0   83.1342  3.3629000
   11031.0  82736.0   83.1827  3.3665000
   11005.0  82858.0   83.1922  3.3698000
   10979.0  82980.0   83.1986  3.3728000
   10953.0  83101.0   83.2175  3.3764000
   10927.0  83212.0   83.2313  3.3810000
   10901.0  83323.0   83.2601  3.3855000
   10845.0  83585.0   83.3370  3.3932000
   10818.0  83706.0   83.3483  3.3965000
   10792.0  83826.0   83.3623  3.4000000
   10766.0  83946.0   83.3775  3.4041000
   10740.0  84066.0   83.3866  3.4084000
   10714.0  84186.0   83.3792  3.4127000
   10688.0  84306.0   83.4238  3.4174000
   10662.0  84425.0   83.4326  3.4221000
   10636.0  84545.0   83.4510  3.4260000
   10610.0  84664.0   83.4893  3.4299000
   10584.0  84783.0   83.5094  3.4340000
   10558.0  84902.0   83.4979  3.4374000
   10532.0  85030.0   83.4891  3.4413000
   10505.0  85149.0   83.5056  3.4465000
   10479.0  85267.0   83.5417  3.4520000
   10453.0  85385.0   83.5841  3.4567000
   10427.0  85513.0   83.5903  3.4601000
   10401.0  85631.0   83.5903  3.4630000
   10375.0  85749.0   83.6290  3.4673000
   10349.0  85876.0   83.6314  3.4721000
   10323.0  85993.0   83.6715  3.4758000
   10297.0  86110.0   83.7019  3.4800000
   10272.0  86227.0   83.7082  3.4836000
   10246.0  86344.0   83.7093  3.4870000
   10220.0  86470.0   83.7212  3.4915000
   10194.0  86596.0   83.7447  3.4962000
   10168.0  86713.0   83.7704  3.5006000
   10113.0  86974.0   83.8313  3.5086000
   10087.0  87099.0   83.8545  3.5122000
   10061.0  87224.0   83.8706  3.5159000
   10035.0  87339.0   83.9045  3.5198000
   10009.0  87464.0   83.9238  3.5240000
    9984.0  87579.0   83.9400  3.5274000
    9958.0  87704.0   83.9644  3.5314000
    9932.0  87837.0   83.9929  3.5354000
    9906.0  87952.0   84.0109  3.5389000
    9881.0  88066.0   84.0186  3.5429000
    9855.0  88199.0   84.0353  3.5472000
    9829.0  88323.0   84.0668  3.5513000
    9804.0  88446.0   84.0928  3.5554000
    9778.0  88579.0   84.0954  3.5592000
    9753.0  88692.0   84.1046  3.5627000
    9727.0  88824.0   84.0959  3.5676000
    9702.0  88947.0   84.1373  3.5724000
    9676.0  89069.0   84.1592  3.5773000
    9622.0  89332.0   84.1684  3.5856000
    9596.0  89463.0   84.2071  3.5901000
    9571.0  89584.0   84.2504  3.5946000
    9545.0  89706.0   84.2856  3.5984000
    9520.0  89836.0   84.2977  3.6014000
    9494.0  89957.0   84.2941  3.6044000
    9469.0  90087.0   84.3109  3.6085000
    9443.0  90208.0   84.2935  3.6135000
    9418.0  90328.0   84.3089  3.6184000
    9393.0  90457.0   84.3096  3.6237000
    9367.0  90577.0   84.3156  3.6289000
    9342.0  90697.0   84.3440  3.6336000
    9317.0  90817.0   84.3717  3.6386000
    9291.0  90946.0   84.3973  3.6427000
    9266.0  91065.0   84.4164  3.6460000
    9241.0  91193.0   84.4431  3.6496000
    9215.0  91312.0   84.4791  3.6536000
    9190.0  91440.0   84.5051  3.6573000
    9165.0  91568.0   84.5240  3.6606000
    9140.0  91686.0   84.5390  3.6639000
    9114.0  91813.0   84.5561  3.6681000
    9089.0  91931.0   84.5763  3.6724000
    9064.0  92058.0   84.6000  3.6765000
    9039.0  92185.0   84.6293  3.6805000
    9014.0  92311.0   84.6487  3.6841000
    8988.0  92437.0   84.6649  3.6879000
    8963.0  92572.0   84.6858  3.6918000
    8909.0  92841.0   84.7308  3.7006000
    8884.0  92967.0   84.7388  3.7049000
    8859.0  93092.0   84.7596  3.7091000
    8834.0  93226.0   84.7836  3.7135000
    8809.0  93342.0   84.8032  3.7179000
    8784.0  93466.0   84.8198  3.7220000
    8758.0  93591.0   84.8427  3.7265000
    8733.0  93715.0   84.8522  3.7307000
    8708.0  93839.0   84.8770  3.7349000
    8683.0  93971.0   84.9031  3.7393000
    8658.0  94104.0   84.9347  3.7434000
    8633.0  94218.0   84.9549  3.7473000
    8608.0  94350.0   84.9678  3.7514000
    8583.0  94482.0   84.9943  3.7554000
    8558.0  94604.0   85.0251  3.7595000
    8533.0  94727.0   85.0375  3.7638000
    8508.0  94849.0   85.0458  3.7679000
    8484.0  94980.0   85.0848  3.7719000
    8430.0  95250.0   85.1065  3.7810000
    8405.0  95371.0   85.1266  3.7853000
    8380.0  95501.0   85.1462  3.7901000
    8355.0  95631.0   85.1694  3.7945000
    8330.0  95761.0   85.2024  3.7987000
    8305.0  95890.0   85.2214  3.8028000
    8280.0  96010.0   85.2371  3.8067000
    8255.0  96139.0   85.2600  3.8109000
    8230.0  96268.0   85.2842  3.8153000
    8205.0  96405.0   85.3136  3.8195000
    8180.0  96533.0   85.3439  3.8234000
    8156.0  96661.0   85.3585  3.8272000
    8131.0  96789.0   85.3715  3.8312000
    8106.0  96916.0   85.3897  3.8354000
    8081.0  97044.0   85.4125  3.8400000
    8057.0  97171.0   85.4444  3.8444000
    8032.0  97298.0   85.4575  3.8486000
    8008.0  97425.0   85.4674  3.8525000
    7983.0  97551.0   85.4895  3.8566000
    7958.0  97677.0   85.5138  3.8614000
    7933.0  97812.0   85.5292  3.8659000
    7909.0  97946.0   85.5441  3.8697000
    7884.0  98072.0   85.5664  3.8739000
    7859.0  98205.0   85.5878  3.8787000
    7835.0  98339.0   85.5640  3.8830000
    7810.0  98464.0   85.5990  3.8871000
    7786.0  98597.0   85.6486  3.8922000
    7731.0  98871.0   85.7002  3.9014000
    7707.0  99003.0   85.6874  3.9050000
    7682.0  99135.0   85.6891  3.9091000
    7658.0  99267.0   85.7265  3.9139000
    7633.0  99398.0   85.7683  3.9195000
    7609.0  99530.0   85.8003  3.9238000
    7585.0  99653.0   85.8104  3.9271000
    7560.0  99784.0   85.7965  3.9307000
    7536.0  99914.0   85.8031  3.9349000
    7512.0 100053.0   85.8261  3.9399000
    7487.0 100183.0   85.8563  3.9454000
    7463.0 100313.0   85.8798  3.9499000
    7438.0 100443.0   85.9043  3.9542000
    7413.0 100573.0   85.9363  3.9583000
    7389.0 100702.0   85.9445  3.9624000
    7364.0 100839.0   85.9620  3.9664000
    7340.0 100968.0   85.9902  3.9704000
    7315.0 101096.0   86.0164  3.9752000
    7262.0 101385.0   86.0682  3.9841000
    7237.0 101521.0   86.1034  3.9881000
    7213.0 101648.0   86.1314  3.9922000
    7189.0 101776.0   86.1608  3.9961000
    7164.0 101911.0   86.1834  4.0001000
    7140.0 102046.0   86.2075  4.0039000
    7116.0 102181.0   86.2283  4.0076000
    7091.0 102307.0   86.2564  4.0119000
    7067.0 102441.0   86.2855  4.0161000
    7043.0 102575.0   86.3079  4.0203000
    7018.0 102709.0   86.3357  4.0242000
    6994.0 102834.0   86.3655  4.0281000
    6970.0 102968.0   86.3956  4.0323000
    6945.0 103101.0   86.4197  4.0364000
    6921.0 103233.0   86.4380  4.0400000
    6897.0 103366.0   86.4577  4.0439000
    6872.0 103506.0   86.4772  4.0483000
    6848.0 103645.0   86.5002  4.0525000
    6824.0 103769.0   86.5038  4.0567000
    6800.0 103901.0   86.5426  4.0611000
    6776.0 104032.0   86.5646  4.0659000
    6751.0 104171.0   86.5808  4.0705000
    6727.0 104294.0   86.6079  4.0740000
    6703.0 104432.0   86.5987  4.0783000
    6679.0 104562.0   86.6089  4.0828000
    6655.0 104700.0   86.6260  4.0872000
    6631.0 104829.0   86.6447  4.0927000
    6579.0 105111.0   86.7031  4.1026000
    6555.0 105247.0   86.7399  4.1067000
    6531.0 105376.0   86.7624  4.1106000
    6507.0 105520.0   86.7890  4.1145000
    6483.0 105648.0   86.8309  4.1182000
    6458.0 105783.0   86.8581  4.1224000
    6434.0 105911.0   86.8854  4.1264000
    6410.0 106046.0   86.9157  4.1298000
    6386.0 106181.0   86.9366  4.1338000
    6362.0 106315.0   86.9594  4.1376000
    6338.0 106457.0   86.9903  4.1416000
    6314.0 106591.0   87.0216  4.1458000
    6290.0 106725.0   87.0443  4.1498000
    6266.0 106858.0   87.0634  4.1538000
    6242.0 106992.0   87.0824  4.1578000
    6218.0 107125.0   87.0995  4.1620000
    6194.0 107265.0   87.1288  4.1665000
    6170.0 107397.0   87.1502  4.1708000
    6118.0 107683.0   87.1810  4.1800000
    6094.0 107822.0   87.1942  4.1845000
    6071.0 107953.0   87.2147  4.1889000
    6047.0 108092.0   87.2395  4.1936000
    6023.0 108230.0   87.2688  4.1983000
    5999.0 108361.0   87.2872  4.2025000
    5975.0 108498.0   87.3055  4.2066000
    5952.0 108628.0   87.3142  4.2106000
    5928.0 108765.0   87.3264  4.2151000
    5904.0 108902.0   87.3511  4.2198000
    5880.0 109039.0   87.3749  4.2246000
    5856.0 109175.0   87.4043  4.2292000
    5832.0 109311.0   87.4236  4.2334000
    5809.0 109454.0   87.4579  4.2374000
    5785.0 109589.0   87.4802  4.2414000
    5761.0 109731.0   87.5109  4.2456000
    5737.0 109859.0   87.5389  4.2496000
    5713.0 109994.0   87.5522  4.2538000
    5690.0 110135.0   87.5732  4.2578000
    5666.0 110269.0   87.5883  4.2618000
    5642.0 110403.0   87.5980  4.2664000
    5618.0 110536.0   87.6107  4.2711000
    5595.0 110677.0   87.6299  4.2757000
    5571.0 110803.0   87.6545  4.2806000
    5547.0 110942.0   87.6862  4.2853000
    5524.0 111082.0   87.7162  4.2896000
    5500.0 111221.0   87.7202  4.2934000
    5449.0 111512.0   87.7609  4.3026000
    5425.0 111643.0   87.7750  4.3075000
    5402.0 111781.0   87.8151  4.3120000
    5378.0 111919.0   87.8390  4.3165000
    5355.0 112057.0   87.8627  4.3203000
    5331.0 112194.0   87.8908  4.3241000
    5308.0 112337.0   87.9109  4.3283000
    5284.0 112474.0   87.9352  4.3324000
    5261.0 112610.0   87.9598  4.3364000
    5237.0 112746.0   87.9822  4.3410000
    5214.0 112882.0   88.0096  4.3451000
    5191.0 113024.0   88.0332  4.3492000
    5167.0 113159.0   88.0531  4.3534000
    5144.0 113287.0   88.0624  4.3573000
    5120.0 113422.0   88.1003  4.3620000
    5097.0 113563.0   88.1155  4.3666000
    5074.0 113697.0   88.1320  4.3705000
    5050.0 113837.0   88.1452  4.3746000
    5000.0 114124.0   88.1853  4.3846000
    4976.0 114264.0   88.2044  4.3894000
    4953.0 114403.0   88.2300  4.3937000
    4929.0 114542.0   88.2565  4.3983000
    4906.0 114680.0   88.2760  4.4025000
    4882.0 114819.0   88.2905  4.4067000
    4859.0 114957.0   88.3082  4.4110000
    4835.0 115095.0   88.3259  4.4157000
    4812.0 115232.0   88.3587  4.4203000
    4788.0 115369.0   88.3732  4.4250000
    4765.0 115500.0   88.4009  4.4289000
    4742.0 115643.0   88.4387  4.4333000
    4719.0 115779.0   88.4508  4.4372000
    4695.0 115915.0   88.4684  4.4410000
    4672.0 116051.0   88.4802  4.4455000
    4649.0 116193.0   88.4976  4.4501000
    4626.0 116328.0   88.5204  4.4547000
    4603.0 116469.0   88.5426  4.4594000
    4580.0 116610.0   88.5582  4.4636000
    4557.0 116744.0   88.5643  4.4679000
    4533.0 116885.0   88.5831  4.4728000
    4510.0 117019.0   88.6058  4.4778000
    4487.0 117165.0   88.6174  4.4825000
    4464.0 117304.0   88.6571  4.4865000
    4441.0 117443.0   88.6687  4.4913000
    4418.0 117576.0   88.6912  4.4951000
    4395.0 117721.0   88.7129  4.4997000
    4345.0 118016.0   88.7640  4.5091000
    4322.0 118159.0   88.7913  4.5132000
    4298.0 118303.0   88.8016  4.5176000
    4275.0 118446.0   88.8211  4.5217000
    4252.0 118583.0   88.8509  4.5265000
    4229.0 118719.0   88.8736  4.5312000
    4206.0 118861.0   88.8953  4.5352000
    4183.0 119003.0   88.9132  4.5393000
    4160.0 119145.0   88.9336  4.5436000
    4137.0 119286.0   88.9503  4.5482000
    4114.0 119433.0   88.9779  4.5526000
    4091.0 119568.0   89.0016  4.5570000
    4068.0 119708.0   89.0133  4.5615000
    4045.0 119854.0   89.0383  4.5656000
    4023.0 119988.0   89.0647  4.5701000
    4000.0 120127.0   89.0887  4.5746000
    3977.0 120260.0   89.1101  4.5786000
    3954.0 120411.0   89.1365  4.5830000
    3905.0 120712.0   89.1966  4.5918000
    3882.0 120849.0   89.2261  4.5959000
    3859.0 120993.0   89.2510  4.6000000
    3836.0 121136.0   89.2727  4.6038000
    3813.0 121279.0   89.3045  4.6080000
    3790.0 121421.0   89.3224  4.6124000
    3767.0 121557.0   89.3501  4.6163000
    3744.0 121705.0   89.3626  4.6210000
    3721.0 121846.0   89.3895  4.6249000
    3698.0 121987.0   89.4075  4.6298000
    3675.0 122134.0   89.4412  4.6340000
    3653.0 122275.0   89.4690  4.6382000
    3630.0 122409.0   89.4921  4.6422000
    3607.0 122554.0   89.5177  4.6464000
    3584.0 122700.0   89.5431  4.6504000
    3561.0 122839.0   89.5622  4.6546000
    3538.0 122983.0   89.5812  4.6590000
    3515.0 123122.0   89.6121  4.6635000
    3493.0 123272.0   89.6342  4.6679000
    3470.0 123409.0   89.6586  4.6716000
    3447.0 123553.0   89.6557  4.6762000
    3424.0 123701.0   89.6975  4.6807000
    3402.0 123844.0   89.7201  4.6858000
    3379.0 123986.0   89.7443  4.6894000
    3356.0 124128.0   89.7729  4.6938000
    3334.0 124275.0   89.8027  4.6979000
    3311.0 124422.0   89.8259  4.7018000
    3263.0 124726.0   89.8721  4.7107000
    3240.0 124871.0   89.9012  4.7151000
    3217.0 125006.0   89.9144  4.7196000
    3195.0 125151.0   89.9302  4.7238000
    3172.0 125295.0   89.9418  4.7284000
    3150.0 125440.0   89.9504  4.7331000
    3127.0 125578.0   89.9707  4.7382000
    3104.0 125722.0   89.9822  4.7434000
    3082.0 125859.0   90.0065  4.7478000
    3059.0 126008.0   90.0229  4.7527000
    3037.0 126150.0   90.0414  4.7568000
    3014.0 126293.0   90.0591  4.7616000
    2992.0 126435.0   90.0754  4.7662000
    2969.0 126582.0   90.0959  4.7709000
    2947.0 126728.0   90.1250  4.7753000
    2924.0 126874.0   90.1510  4.7797000
    2902.0 127020.0   90.1672  4.7837000
    2879.0 127171.0   90.1890  4.7881000
    2831.0 127477.0   90.2262  4.7979000
    2809.0 127621.0   90.2482  4.8025000
    2787.0 127765.0   90.2708  4.8070000
    2764.0 127909.0   90.2840  4.8115000
    2742.0 128052.0   90.3140  4.8159000
    2719.0 128201.0   90.3248  4.8206000
    2697.0 128343.0   90.3607  4.8247000
    2675.0 128491.0   90.3928  4.8293000
    2652.0 128627.0   90.4141  4.8331000
    2630.0 128769.0   90.4312  4.8371000
    2608.0 128920.0   90.4463  4.8414000
    2585.0 129061.0   90.4580  4.8462000
    2563.0 129212.0   90.4795  4.8511000
    2541.0 129362.0   90.5174  4.8556000
    2518.0 129507.0   90.5425  4.8598000
    2496.0 129652.0   90.5679  4.8637000
    2474.0 129796.0   90.5875  4.8678000
    2451.0 129939.0   90.6188  4.8723000
    2429.0 130088.0   90.6400  4.8764000
    2407.0 130231.0   90.6688  4.8804000
    2385.0 130379.0   90.6941  4.8847000
    2362.0 130521.0   90.7068  4.8889000
    2340.0 130668.0   90.7361  4.8934000
    2318.0 130809.0   90.7644  4.8978000
    2296.0 130961.0   90.7837  4.9017000
    2273.0 131111.0   90.8129  4.9060000
    2251.0 131252.0   90.8347  4.9104000
    2202.0 131566.0   90.8860  4.9199000
    2180.0 131706.0   90.9040  4.9242000
    2158.0 131860.0   90.9330  4.9284000
    2136.0 131998.0   90.9537  4.9327000
    2114.0 132146.0   90.9761  4.9369000
    2092.0 132289.0   91.0029  4.9413000
    2070.0 132441.0   91.0311  4.9453000
    2048.0 132588.0   91.0573  4.9494000
    2026.0 132739.0   91.0796  4.9535000
    2004.0 132885.0   91.1084  4.9578000
    1982.0 133036.0   91.1386  4.9620000
    1960.0 133181.0   91.1553  4.9660000
    1938.0 133330.0   91.1720  4.9703000
    1916.0 133480.0   91.2064  4.9750000
    1894.0 133619.0   91.2275  4.9792000
    1872.0 133768.0   91.2531  4.9833000
    1850.0 133916.0   91.2758  4.9875000
    1828.0 134063.0   91.3017  4.9918000
    1780.0 134381.0   91.3632  5.0007000
    1758.0 134528.0   91.3953  5.0048000
    1736.0 134678.0   91.4217  5.0086000
    1714.0 134824.0   91.4528  5.0127000
    1692.0 134964.0   91.4711  5.0168000
    1670.0 135119.0   91.5009  5.0210000
    1648.0 135263.0   91.5317  5.0251000
    1626.0 135412.0   91.5610  5.0290000
    1604.0 135555.0   91.5925  5.0330000
    1582.0 135703.0   91.6160  5.0368000
    1560.0 135846.0   91.6432  5.0411000
    1538.0 135997.0   91.6771  5.0450000
    1516.0 136149.0   91.7060  5.0488000
    1494.0 136295.0   91.7252  5.0529000
    1472.0 136436.0   91.7554  5.0575000
    1450.0 136586.0   91.7773  5.0613000
    1428.0 136735.0   91.8079  5.0657000
    1406.0 136889.0   91.8393  5.0695000
    1384.0 137042.0   91.8641  5.0734000
    1362.0 137190.0   91.8939  5.0778000
    1340.0 137343.0   91.9231  5.0817000
    1318.0 137490.0   91.9520  5.0858000
    1296.0 137646.0   91.9824  5.0896000
    1275.0 137797.0   92.0090  5.0935000
    1253.0 137947.0   92.0368  5.0977000
    1231.0 138097.0   92.0584  5.1019000
    1209.0 138242.0   92.0909  5.1064000
    1163.0 138567.0   92.1513  5.1144000
    1141.0 138719.0   92.1702  5.1186000
    1119.0 138876.0   92.1966  5.1232000
    1097.0 139032.0   92.2314  5.1274000
    1075.0 139179.0   92.2594  5.1314000
    1053.0 139329.0   92.2805  5.1354000
    1032.0 139488.0   92.3132  5.1395000
    1010.0 139630.0   92.3479  5.1438000
     988.0 139783.0   92.3696  5.1472000
     966.0 139937.0   92.3887  5.1517000
     944.0 140077.0   92.4126  5.1567000
     922.0 140229.0   92.4371  5.1607000
     901.0 140381.0   92.4564  5.1648000
     879.0 140537.0   92.4834  5.1695000
     857.0 140688.0   92.5206  5.1747000
     835.0 140838.0   92.5269  5.1785000
     813.0 140992.0   92.5427  5.1830000
     792.0 141142.0   92.5613  5.1878000
     745.0 141477.0   92.6162  5.1970000
     723.0 141629.0   92.6410  5.2012000
     702.0 141777.0   92.6621  5.2055000
     680.0 141928.0   92.6976  5.2099000
     658.0 142079.0   92.7274  5.2136000
     636.0 142234.0   92.7502  5.2176000
     615.0 142388.0   92.7753  5.2219000
     593.0 142541.0   92.7972  5.2262000
     571.0 142698.0   92.8186  5.2307000
     549.0 142851.0   92.8534  5.2353000
     528.0 142999.0   92.8788  5.2390000
     506.0 143150.0   92.9007  5.2432000
     484.0 143305.0   92.9271  5.2476000
     462.0 143456.0   92.9612  5.2518000
     440.0 143610.0   92.9847  5.2558000
     418.0 143760.0   93.0059  5.2603000
     397.0 143913.0   93.0182  5.2648000
     375.0 144066.0   93.0275  5.2700000
     353.0 144218.0   93.0433  5.2752000
     331.0 144370.0   93.0687  5.2800000
     310.0 144525.0   93.0722  5.2845000
     288.0 144676.0   93.0900  5.2900000
     266.0 144822.0   93.1282  5.2943000
     245.0 144976.0   93.1478  5.2980000
     223.0 145129.0   93.1805  5.3022000
     201.0 145289.0   93.2035  5.3063000
     180.0 145449.0   93.2325  5.3105000
     132.0 145782.0   93.3009  5.3195000
     111.0 145932.0   93.3252  5.3234000
      89.0 146086.0   93.3643  5.3273000
      68.0 146240.0   93.3815  5.3313000
      46.0 146396.0   93.4085  5.3358000
      24.0 146548.0   93.4496  5.3403000
       3.0 146645.0   93.5027  5.3446000
       0.0 146666.0   93.5063  5.3451612
    -100.0 147368.3   93.6260  5.3638900
    -200.0 148073.0   93.7457  5.3826603
    -300.0 148780.3   93.8653  5.4014723
    -400.0 149489.9   93.9850  5.4203259
    -500.0 150202.1   94.1047  5.4392212
    -600.0 150916.7   94.2244  5.4581582
    -700.0 151633.8   94.3441  5.4771370
    -800.0 152353.4   94.4637  5.4961576
    -900.0 153075.5   94.5834  5.5152201
   -1000.0 153800.1   94.7031  5.5343244
